Sample	 
Comments	 
Filename	C:\Data\西出研\梅木\20211102オペ\LiFTFSI_03_0001_0099-4_C_2θ.raw
Goniometer	SmartLab(In-plane)
Attachment	標準Zステージ
Monochromater	None
X	0
Y	0
Z	0.00908
ScanningMode	2Theta
ScanningType	Continuos Scanning
X-Ray	40kV/30mA
入射スリット	0.300mm
受光スリット1	20.000mm
受光スリット2	20.000mm
None	
Start	5
Stop	60
Step	0.02
Speed	21.6746
Theta	0
5	3811.11
5.02	3413.75
5.04	3269.25
5.06	3522.12
5.08	3088.63
5.1	3702.74
5.12	3197
5.14	3431.81
5.16	3485.99
5.18	3178.94
5.2	3558.24
5.22	3377.62
5.24	3070.56
5.26	3576.31
5.28	3269.25
5.3	3540.18
5.32	3197
5.34	3142.81
5.36	3233.12
5.38	3269.25
5.4	2980.25
5.42	3774.99
5.44	3467.93
5.46	3684.68
5.48	3811.11
5.5	3576.31
5.52	3413.75
5.54	3323.44
5.56	2908.01
5.58	2998.32
5.6	3449.87
5.62	3504.06
5.64	2817.69
5.66	3052.5
5.68	2889.94
5.7	3359.56
5.72	2727.38
5.74	3088.63
5.76	3287.31
5.78	3287.31
5.8	3287.31
5.82	3251.19
5.84	3197
5.86	3576.31
5.88	3178.94
5.9	3522.12
5.92	3558.24
5.94	3720.8
5.96	3142.81
5.98	3485.99
6	3124.75
6.02	3395.68
6.04	3377.62
6.06	3305.37
6.08	3142.81
6.1	2763.51
6.12	3323.44
6.14	3359.56
6.16	3106.69
6.18	2781.57
6.2	3215.06
6.22	2944.13
6.24	3233.12
6.26	3287.31
6.28	3449.87
6.3	3359.56
6.32	3052.5
6.34	3124.75
6.36	3106.69
6.38	3142.81
6.4	3070.56
6.42	3485.99
6.44	2817.69
6.46	2998.32
6.48	3522.12
6.5	2727.38
6.52	2908.01
6.54	3540.18
6.56	3612.43
6.58	3323.44
6.6	3449.87
6.62	3287.31
6.64	2871.88
6.66	2709.32
6.68	3142.81
6.7	3413.75
6.72	2673.2
6.74	3142.81
6.76	2944.13
6.78	3070.56
6.8	3142.81
6.82	3522.12
6.84	2908.01
6.86	2998.32
6.88	3106.69
6.9	3052.5
6.92	3106.69
6.94	3070.56
6.96	3124.75
6.98	3359.56
7	2926.07
7.02	3178.94
7.04	3197
7.06	3088.63
7.08	3449.87
7.1	3287.31
7.12	3287.31
7.14	3160.88
7.16	2908.01
7.18	3323.44
7.2	3052.5
7.22	3088.63
7.24	3124.75
7.26	3305.37
7.28	3233.12
7.3	2998.32
7.32	3070.56
7.34	2691.26
7.36	2763.51
7.38	2908.01
7.4	3485.99
7.42	2655.14
7.44	3341.5
7.46	2889.94
7.48	2763.51
7.5	2781.57
7.52	2962.19
7.54	2619.01
7.56	3323.44
7.58	3359.56
7.6	3215.06
7.62	2908.01
7.64	2998.32
7.66	3142.81
7.68	2908.01
7.7	3052.5
7.72	3630.49
7.74	3233.12
7.76	2980.25
7.78	3233.12
7.8	2853.82
7.82	2998.32
7.84	2944.13
7.86	3160.88
7.88	2709.32
7.9	3413.75
7.92	2853.82
7.94	2871.88
7.96	3305.37
7.98	2980.25
8	3233.12
8.02	2980.25
8.04	3088.63
8.06	3034.44
8.08	3233.12
8.1	3178.94
8.12	2998.32
8.14	3323.44
8.16	2889.94
8.18	3160.88
8.2	2926.07
8.22	2926.07
8.24	3558.24
8.26	2980.25
8.28	2908.01
8.3	2745.45
8.32	3106.69
8.34	2655.14
8.36	3215.06
8.38	3178.94
8.4	3359.56
8.42	2853.82
8.44	3215.06
8.46	3305.37
8.48	2962.19
8.5	3052.5
8.52	3287.31
8.54	3088.63
8.56	3070.56
8.58	2926.07
8.6	2926.07
8.62	2889.94
8.64	2853.82
8.66	3034.44
8.68	2727.38
8.7	2619.01
8.72	2528.7
8.74	2871.88
8.76	2944.13
8.78	2655.14
8.8	2871.88
8.82	2474.51
8.84	3034.44
8.86	3016.38
8.88	2600.95
8.9	3016.38
8.92	3052.5
8.94	3142.81
8.96	2799.63
8.98	3052.5
9	2980.25
9.02	3124.75
9.04	2998.32
9.06	3088.63
9.08	3323.44
9.1	3233.12
9.12	3323.44
9.14	3305.37
9.16	3305.37
9.18	3630.49
9.2	3395.68
9.22	3088.63
9.24	2673.2
9.26	2853.82
9.28	2745.45
9.3	2799.63
9.32	2998.32
9.34	2998.32
9.36	2673.2
9.38	2908.01
9.4	2691.26
9.42	3052.5
9.44	2998.32
9.46	3197
9.48	2582.89
9.5	2926.07
9.52	2889.94
9.54	3269.25
9.56	3106.69
9.58	2998.32
9.6	3377.62
9.62	3034.44
9.64	2691.26
9.66	3178.94
9.68	3034.44
9.7	3088.63
9.72	2709.32
9.74	2619.01
9.76	3377.62
9.78	2709.32
9.8	2673.2
9.82	2853.82
9.84	3052.5
9.86	2673.2
9.88	2727.38
9.9	2781.57
9.92	3197
9.94	2853.82
9.96	2835.76
9.98	2745.45
10	2637.07
10.02	3178.94
10.04	3016.38
10.06	2528.7
10.08	2600.95
10.1	2727.38
10.12	2980.25
10.14	3088.63
10.16	2889.94
10.18	2546.76
10.2	3034.44
10.22	2709.32
10.24	2926.07
10.26	2926.07
10.28	2727.38
10.3	3034.44
10.32	3070.56
10.34	2763.51
10.36	2655.14
10.38	2889.94
10.4	2528.7
10.42	2600.95
10.44	2366.14
10.46	2889.94
10.48	2817.69
10.5	2474.51
10.52	2275.83
10.54	3377.62
10.56	2709.32
10.58	2926.07
10.6	2582.89
10.62	2980.25
10.64	2781.57
10.66	2727.38
10.68	2763.51
10.7	3178.94
10.72	2456.45
10.74	2528.7
10.76	2853.82
10.78	2456.45
10.8	2745.45
10.82	2817.69
10.84	2944.13
10.86	3052.5
10.88	2673.2
10.9	2745.45
10.92	2763.51
10.94	2564.82
10.96	2745.45
10.98	2962.19
11	2962.19
11.02	2655.14
11.04	2149.4
11.06	2980.25
11.08	2835.76
11.1	2528.7
11.12	2763.51
11.14	2546.76
11.16	2582.89
11.18	2384.2
11.2	2709.32
11.22	2637.07
11.24	2637.07
11.26	3359.56
11.28	2727.38
11.3	2438.39
11.32	2655.14
11.34	2835.76
11.36	2655.14
11.38	2600.95
11.4	2781.57
11.42	2781.57
11.44	2781.57
11.46	2799.63
11.48	2799.63
11.5	2871.88
11.52	2348.08
11.54	2546.76
11.56	2221.64
11.58	2817.69
11.6	2113.27
11.62	2799.63
11.64	2889.94
11.66	2799.63
11.68	2366.14
11.7	2926.07
11.72	2528.7
11.74	2998.32
11.76	2348.08
11.78	2673.2
11.8	2456.45
11.82	2709.32
11.84	2763.51
11.86	3070.56
11.88	2619.01
11.9	2908.01
11.92	2474.51
11.94	2763.51
11.96	2745.45
11.98	2817.69
12	2221.64
12.02	2600.95
12.04	2600.95
12.06	2330.02
12.08	2727.38
12.1	2709.32
12.12	2637.07
12.14	2871.88
12.16	2619.01
12.18	2944.13
12.2	2709.32
12.22	2691.26
12.24	2799.63
12.26	2619.01
12.28	2474.51
12.3	2817.69
12.32	2691.26
12.34	3016.38
12.36	3052.5
12.38	2763.51
12.4	3016.38
12.42	2889.94
12.44	2889.94
12.46	2926.07
12.48	3341.5
12.5	4009.8
12.52	3774.99
12.54	3395.68
12.56	3359.56
12.58	2835.76
12.6	2673.2
12.62	2637.07
12.64	2528.7
12.66	2926.07
12.68	2438.39
12.7	2311.95
12.72	2673.2
12.74	2799.63
12.76	2980.25
12.78	2655.14
12.8	2691.26
12.82	2564.82
12.84	2564.82
12.86	2402.27
12.88	2763.51
12.9	2817.69
12.92	2456.45
12.94	2492.58
12.96	2384.2
12.98	2691.26
13	2582.89
13.02	2709.32
13.04	2619.01
13.06	2655.14
13.08	2492.58
13.1	2402.27
13.12	2817.69
13.14	2239.71
13.16	2366.14
13.18	2239.71
13.2	2185.52
13.22	2709.32
13.24	2564.82
13.26	2510.64
13.28	2330.02
13.3	2330.02
13.32	2366.14
13.34	2077.15
13.36	2474.51
13.38	2691.26
13.4	2655.14
13.42	2528.7
13.44	2691.26
13.46	2474.51
13.48	2384.2
13.5	2239.71
13.52	2962.19
13.54	2564.82
13.56	2582.89
13.58	1950.71
13.6	2221.64
13.62	2113.27
13.64	2438.39
13.66	2546.76
13.68	2384.2
13.7	2311.95
13.72	2528.7
13.74	2420.33
13.76	2330.02
13.78	2348.08
13.8	2763.51
13.82	2438.39
13.84	2474.51
13.86	3124.75
13.88	2474.51
13.9	2438.39
13.92	2619.01
13.94	2275.83
13.96	2564.82
13.98	2366.14
14	2149.4
14.02	2438.39
14.04	2131.33
14.06	2203.58
14.08	2348.08
14.1	2637.07
14.12	2275.83
14.14	2348.08
14.16	2926.07
14.18	3016.38
14.2	2420.33
14.22	2528.7
14.24	2203.58
14.26	2564.82
14.28	2402.27
14.3	2510.64
14.32	2492.58
14.34	2348.08
14.36	2420.33
14.38	2384.2
14.4	2510.64
14.42	2293.89
14.44	2564.82
14.46	2366.14
14.48	2402.27
14.5	2348.08
14.52	2095.21
14.54	2384.2
14.56	2330.02
14.58	2456.45
14.6	2095.21
14.62	2456.45
14.64	2113.27
14.66	2492.58
14.68	2384.2
14.7	2546.76
14.72	2384.2
14.74	2311.95
14.76	2402.27
14.78	2600.95
14.8	2167.46
14.82	2041.02
14.84	2149.4
14.86	2221.64
14.88	2619.01
14.9	2799.63
14.92	2546.76
14.94	2889.94
14.96	2709.32
14.98	2582.89
15	2727.38
15.02	2709.32
15.04	2510.64
15.06	3070.56
15.08	2438.39
15.1	2763.51
15.12	2348.08
15.14	2546.76
15.16	2781.57
15.18	2275.83
15.2	2330.02
15.22	2564.82
15.24	2510.64
15.26	2456.45
15.28	2384.2
15.3	2492.58
15.32	2456.45
15.34	2348.08
15.36	2835.76
15.38	2510.64
15.4	2113.27
15.42	2402.27
15.44	2293.89
15.46	2420.33
15.48	2908.01
15.5	2438.39
15.52	2330.02
15.54	2293.89
15.56	1752.03
15.58	2546.76
15.6	2402.27
15.62	2348.08
15.64	2384.2
15.66	2438.39
15.68	2221.64
15.7	2293.89
15.72	2944.13
15.74	2510.64
15.76	2348.08
15.78	2185.52
15.8	2619.01
15.82	2239.71
15.84	2474.51
15.86	2492.58
15.88	2438.39
15.9	2673.2
15.92	2510.64
15.94	3052.5
15.96	3178.94
15.98	3738.86
16	3359.56
16.02	4009.8
16.04	4334.92
16.06	3937.55
16.08	3504.06
16.1	3341.5
16.12	2835.76
16.14	2257.77
16.16	2564.82
16.18	2402.27
16.2	2293.89
16.22	2239.71
16.24	2528.7
16.26	2438.39
16.28	2402.27
16.3	1950.71
16.32	1878.46
16.34	2402.27
16.36	2004.9
16.38	2420.33
16.4	2402.27
16.42	2239.71
16.44	2402.27
16.46	2293.89
16.48	2203.58
16.5	2384.2
16.52	2275.83
16.54	2384.2
16.56	2366.14
16.58	1968.77
16.6	2275.83
16.62	2113.27
16.64	2257.77
16.66	2041.02
16.68	2619.01
16.7	2095.21
16.72	2059.08
16.74	2275.83
16.76	2113.27
16.78	2185.52
16.8	2077.15
16.82	2402.27
16.84	2131.33
16.86	2492.58
16.88	2239.71
16.9	2185.52
16.92	2257.77
16.94	2131.33
16.96	2203.58
16.98	2311.95
17	2059.08
17.02	1950.71
17.04	2384.2
17.06	2203.58
17.08	2004.9
17.1	2492.58
17.12	2275.83
17.14	2077.15
17.16	1986.84
17.18	2203.58
17.2	2275.83
17.22	2221.64
17.24	2022.96
17.26	1932.65
17.28	1788.15
17.3	1842.34
17.32	2420.33
17.34	2293.89
17.36	1788.15
17.38	2221.64
17.4	2203.58
17.42	2239.71
17.44	2348.08
17.46	2059.08
17.48	2221.64
17.5	1932.65
17.52	2311.95
17.54	2203.58
17.56	1932.65
17.58	2059.08
17.6	2203.58
17.62	2113.27
17.64	2366.14
17.66	2004.9
17.68	2149.4
17.7	2149.4
17.72	2077.15
17.74	2655.14
17.76	2619.01
17.78	2944.13
17.8	3016.38
17.82	3395.68
17.84	3287.31
17.86	4479.41
17.88	4660.03
17.9	5725.7
17.92	6321.75
17.94	6574.62
17.96	7008.11
17.98	5978.57
18	5761.82
18.02	4045.92
18.04	3160.88
18.06	2944.13
18.08	2311.95
18.1	1986.84
18.12	2077.15
18.14	2275.83
18.16	2239.71
18.18	2438.39
18.2	2420.33
18.22	1715.9
18.24	2366.14
18.26	2673.2
18.28	2637.07
18.3	2889.94
18.32	3395.68
18.34	3576.31
18.36	4226.54
18.38	4497.47
18.4	5256.08
18.42	5310.27
18.44	5111.59
18.46	5003.21
18.48	4407.16
18.5	3377.62
18.52	3287.31
18.54	2889.94
18.56	2384.2
18.58	2600.95
18.6	2348.08
18.62	2510.64
18.64	2131.33
18.66	1733.97
18.68	2041.02
18.7	2348.08
18.72	1986.84
18.74	2077.15
18.76	1968.77
18.78	1806.21
18.8	2149.4
18.82	1788.15
18.84	2293.89
18.86	1968.77
18.88	1968.77
18.9	2293.89
18.92	2257.77
18.94	2203.58
18.96	2095.21
18.98	2655.14
19	2492.58
19.02	2691.26
19.04	2835.76
19.06	2817.69
19.08	3251.19
19.1	3558.24
19.12	4226.54
19.14	5165.77
19.16	5508.95
19.18	6502.37
19.2	5761.82
19.22	5274.15
19.24	4641.97
19.26	3106.69
19.28	3160.88
19.3	3034.44
19.32	2239.71
19.34	2528.7
19.36	2366.14
19.38	1770.09
19.4	2004.9
19.42	2564.82
19.44	2041.02
19.46	2022.96
19.48	2257.77
19.5	2077.15
19.52	2113.27
19.54	1986.84
19.56	2239.71
19.58	2059.08
19.6	2167.46
19.62	2131.33
19.64	2185.52
19.66	1842.34
19.68	1842.34
19.7	1914.59
19.72	2149.4
19.74	2185.52
19.76	1697.84
19.78	1842.34
19.8	2022.96
19.82	1914.59
19.84	1950.71
19.86	2293.89
19.88	2041.02
19.9	2203.58
19.92	2420.33
19.94	2221.64
19.96	2131.33
19.98	2438.39
20	2600.95
20.02	2546.76
20.04	2420.33
20.06	2655.14
20.08	2041.02
20.1	2203.58
20.12	1842.34
20.14	2167.46
20.16	1986.84
20.18	2149.4
20.2	1806.21
20.22	1950.71
20.24	2257.77
20.26	1932.65
20.28	1914.59
20.3	2004.9
20.32	2004.9
20.34	1788.15
20.36	1788.15
20.38	1878.46
20.4	1824.28
20.42	1860.4
20.44	1697.84
20.46	1788.15
20.48	2203.58
20.5	2167.46
20.52	1986.84
20.54	1896.53
20.56	1986.84
20.58	1806.21
20.6	2149.4
20.62	1860.4
20.64	2311.95
20.66	1752.03
20.68	2077.15
20.7	1986.84
20.72	1968.77
20.74	1679.78
20.76	2113.27
20.78	1842.34
20.8	2077.15
20.82	2311.95
20.84	2275.83
20.86	2546.76
20.88	2998.32
20.9	2817.69
20.92	3774.99
20.94	4678.1
20.96	5761.82
20.98	6339.81
21	7549.98
21.02	7658.35
21.04	6502.37
21.06	5852.14
21.08	4389.1
21.1	3540.18
21.12	3305.37
21.14	2456.45
21.16	1950.71
21.18	2348.08
21.2	1896.53
21.22	1896.53
21.24	1733.97
21.26	1914.59
21.28	1878.46
21.3	1950.71
21.32	1824.28
21.34	1842.34
21.36	1715.9
21.38	1517.22
21.4	1517.22
21.42	1932.65
21.44	1842.34
21.46	2095.21
21.48	1715.9
21.5	1679.78
21.52	1914.59
21.54	1661.72
21.56	2059.08
21.58	2221.64
21.6	2113.27
21.62	1788.15
21.64	1770.09
21.66	1733.97
21.68	1896.53
21.7	1770.09
21.72	1661.72
21.74	1878.46
21.76	2149.4
21.78	1986.84
21.8	1715.9
21.82	1878.46
21.84	1589.47
21.86	1643.66
21.88	2004.9
21.9	1733.97
21.92	1752.03
21.94	1607.53
21.96	1986.84
21.98	1860.4
22	1589.47
22.02	1643.66
22.04	1788.15
22.06	1589.47
22.08	1715.9
22.1	1679.78
22.12	1571.41
22.14	1914.59
22.16	1697.84
22.18	1625.59
22.2	1715.9
22.22	1824.28
22.24	1842.34
22.26	1806.21
22.28	1715.9
22.3	1553.34
22.32	1444.97
22.34	1643.66
22.36	1733.97
22.38	1914.59
22.4	1625.59
22.42	1752.03
22.44	1499.16
22.46	1896.53
22.48	1336.6
22.5	1625.59
22.52	1878.46
22.54	2059.08
22.56	2095.21
22.58	1679.78
22.6	2077.15
22.62	1950.71
22.64	2041.02
22.66	1661.72
22.68	1571.41
22.7	1842.34
22.72	1679.78
22.74	1914.59
22.76	1228.23
22.78	1535.28
22.8	1625.59
22.82	1643.66
22.84	1752.03
22.86	1625.59
22.88	1553.34
22.9	1842.34
22.92	1770.09
22.94	2041.02
22.96	1860.4
22.98	1679.78
23	1481.1
23.02	2022.96
23.04	2041.02
23.06	1824.28
23.08	1607.53
23.1	1589.47
23.12	1607.53
23.14	1643.66
23.16	1932.65
23.18	1607.53
23.2	1444.97
23.22	1968.77
23.24	2149.4
23.26	2113.27
23.28	1950.71
23.3	2257.77
23.32	2293.89
23.34	2203.58
23.36	2095.21
23.38	1914.59
23.4	1788.15
23.42	1607.53
23.44	1607.53
23.46	1174.04
23.48	1499.16
23.5	1499.16
23.52	1246.29
23.54	1372.72
23.56	1517.22
23.58	1571.41
23.6	1553.34
23.62	1643.66
23.64	1463.03
23.66	1390.79
23.68	1661.72
23.7	1517.22
23.72	1282.41
23.74	1625.59
23.76	1372.72
23.78	1517.22
23.8	1228.23
23.82	1481.1
23.84	1571.41
23.86	1607.53
23.88	1535.28
23.9	1607.53
23.92	1481.1
23.94	1336.6
23.96	1444.97
23.98	1553.34
24	1715.9
24.02	1715.9
24.04	1101.79
24.06	1643.66
24.08	1643.66
24.1	1733.97
24.12	1571.41
24.14	1661.72
24.16	1607.53
24.18	1354.66
24.2	1444.97
24.22	1408.85
24.24	1625.59
24.26	1426.91
24.28	1192.1
24.3	1137.92
24.32	1463.03
24.34	1463.03
24.36	1426.91
24.38	1210.16
24.4	1318.54
24.42	1354.66
24.44	1463.03
24.46	1372.72
24.48	1354.66
24.5	1589.47
24.52	1336.6
24.54	1408.85
24.56	1264.35
24.58	1806.21
24.6	1354.66
24.62	1137.92
24.64	1390.79
24.66	1336.6
24.68	1553.34
24.7	1228.23
24.72	1336.6
24.74	1318.54
24.76	1426.91
24.78	1481.1
24.8	1372.72
24.82	1390.79
24.84	1174.04
24.86	1282.41
24.88	1300.47
24.9	1661.72
24.92	1517.22
24.94	1463.03
24.96	1246.29
24.98	1607.53
25	1174.04
25.02	1535.28
25.04	1643.66
25.06	1589.47
25.08	1697.84
25.1	1174.04
25.12	1715.9
25.14	1408.85
25.16	1752.03
25.18	2131.33
25.2	2041.02
25.22	1806.21
25.24	2041.02
25.26	2113.27
25.28	2221.64
25.3	2510.64
25.32	2673.2
25.34	2926.07
25.36	2962.19
25.38	3070.56
25.4	3504.06
25.42	3738.86
25.44	4334.92
25.46	5003.21
25.48	5183.84
25.5	5870.2
25.52	6195.32
25.54	7008.11
25.56	5436.71
25.58	5274.15
25.6	4389.1
25.62	3630.49
25.64	2564.82
25.66	2564.82
25.68	2004.9
25.7	1643.66
25.72	1643.66
25.74	1571.41
25.76	1661.72
25.78	1499.16
25.8	1228.23
25.82	1354.66
25.84	1228.23
25.86	1481.1
25.88	1589.47
25.9	1408.85
25.92	1444.97
25.94	1408.85
25.96	1119.85
25.98	1589.47
26	1553.34
26.02	1282.41
26.04	1426.91
26.06	1481.1
26.08	1300.47
26.1	1481.1
26.12	1571.41
26.14	1806.21
26.16	1806.21
26.18	2022.96
26.2	2203.58
26.22	2799.63
26.24	3160.88
26.26	2835.76
26.28	2763.51
26.3	2908.01
26.32	2348.08
26.34	2348.08
26.36	2131.33
26.38	1752.03
26.4	1372.72
26.42	1481.1
26.44	1444.97
26.46	1408.85
26.48	1553.34
26.5	1806.21
26.52	1697.84
26.54	1896.53
26.56	2022.96
26.58	1571.41
26.6	1354.66
26.62	1770.09
26.64	1481.1
26.66	1282.41
26.68	1210.16
26.7	1264.35
26.72	1174.04
26.74	1210.16
26.76	975.356
26.78	921.169
26.8	1192.1
26.82	1174.04
26.84	1336.6
26.86	1264.35
26.88	1210.16
26.9	1318.54
26.92	1119.85
26.94	1119.85
26.96	1155.98
26.98	1463.03
27	1065.67
27.02	1336.6
27.04	1192.1
27.06	1318.54
27.08	1300.47
27.1	1174.04
27.12	1354.66
27.14	1029.54
27.16	1155.98
27.18	1192.1
27.2	1444.97
27.22	1372.72
27.24	1372.72
27.26	1408.85
27.28	1499.16
27.3	1517.22
27.32	1517.22
27.34	2330.02
27.36	2293.89
27.38	3359.56
27.4	4226.54
27.42	5201.9
27.44	5346.4
27.46	5310.27
27.48	5219.96
27.5	4371.04
27.52	3829.18
27.54	2366.14
27.56	2727.38
27.58	1842.34
27.6	1589.47
27.62	1372.72
27.64	1282.41
27.66	1336.6
27.68	1390.79
27.7	1155.98
27.72	1408.85
27.74	1336.6
27.76	1499.16
27.78	1499.16
27.8	1517.22
27.82	1426.91
27.84	1499.16
27.86	1463.03
27.88	1444.97
27.9	1192.1
27.92	1318.54
27.94	1065.67
27.96	1119.85
27.98	1300.47
28	1372.72
28.02	1192.1
28.04	1210.16
28.06	1174.04
28.08	1119.85
28.1	1228.23
28.12	903.107
28.14	794.734
28.16	1101.79
28.18	1119.85
28.2	1029.54
28.22	1083.73
28.24	1192.1
28.26	975.356
28.28	1101.79
28.3	848.921
28.32	957.294
28.34	1065.67
28.36	848.921
28.38	1083.73
28.4	1011.48
28.42	722.486
28.44	939.232
28.46	1083.73
28.48	1101.79
28.5	885.045
28.52	1137.92
28.54	1101.79
28.56	1101.79
28.58	1119.85
28.6	921.169
28.62	1155.98
28.64	1354.66
28.66	957.294
28.68	812.797
28.7	1264.35
28.72	1137.92
28.74	740.548
28.76	921.169
28.78	903.107
28.8	939.232
28.82	1228.23
28.84	1011.48
28.86	921.169
28.88	939.232
28.9	1083.73
28.92	903.107
28.94	993.418
28.96	921.169
28.98	1011.48
29	1047.6
29.02	830.859
29.04	1011.48
29.06	1065.67
29.08	1228.23
29.1	1300.47
29.12	794.734
29.14	1047.6
29.16	1011.48
29.18	1065.67
29.2	1083.73
29.22	1065.67
29.24	903.107
29.26	957.294
29.28	885.045
29.3	848.921
29.32	1083.73
29.34	722.486
29.36	1011.48
29.38	1119.85
29.4	957.294
29.42	1065.67
29.44	866.983
29.46	1011.48
29.48	885.045
29.5	975.356
29.52	993.418
29.54	957.294
29.56	758.61
29.58	866.983
29.6	776.672
29.62	866.983
29.64	1065.67
29.66	1083.73
29.68	957.294
29.7	1101.79
29.72	1300.47
29.74	1119.85
29.76	1535.28
29.78	1354.66
29.8	1408.85
29.82	1264.35
29.84	1571.41
29.86	1155.98
29.88	1228.23
29.9	1264.35
29.92	1155.98
29.94	1029.54
29.96	903.107
29.98	939.232
30	632.175
30.02	812.797
30.04	885.045
30.06	1065.67
30.08	1011.48
30.1	812.797
30.12	577.989
30.14	921.169
30.16	921.169
30.18	993.418
30.2	1011.48
30.22	758.61
30.24	794.734
30.26	921.169
30.28	993.418
30.3	885.045
30.32	1011.48
30.34	1047.6
30.36	1246.29
30.38	1246.29
30.4	1571.41
30.42	1426.91
30.44	1499.16
30.46	1463.03
30.48	1372.72
30.5	1354.66
30.52	1119.85
30.54	1083.73
30.56	903.107
30.58	1246.29
30.6	758.61
30.62	830.859
30.64	993.418
30.66	740.548
30.68	866.983
30.7	1174.04
30.72	1029.54
30.74	1083.73
30.76	1029.54
30.78	794.734
30.8	921.169
30.82	1047.6
30.84	939.232
30.86	1137.92
30.88	740.548
30.9	848.921
30.92	848.921
30.94	921.169
30.96	885.045
30.98	794.734
31	1011.48
31.02	993.418
31.04	668.299
31.06	830.859
31.08	1029.54
31.1	1101.79
31.12	830.859
31.14	776.672
31.16	885.045
31.18	758.61
31.2	1192.1
31.22	1065.67
31.24	993.418
31.26	1101.79
31.28	1011.48
31.3	921.169
31.32	939.232
31.34	957.294
31.36	1210.16
31.38	1155.98
31.4	957.294
31.42	1029.54
31.44	1174.04
31.46	1065.67
31.48	921.169
31.5	885.045
31.52	1029.54
31.54	903.107
31.56	1029.54
31.58	939.232
31.6	921.169
31.62	866.983
31.64	650.237
31.66	650.237
31.68	866.983
31.7	776.672
31.72	957.294
31.74	632.175
31.76	1192.1
31.78	957.294
31.8	704.424
31.82	921.169
31.84	866.983
31.86	885.045
31.88	830.859
31.9	776.672
31.92	794.734
31.94	704.424
31.96	758.61
31.98	848.921
32	722.486
32.02	668.299
32.04	758.61
32.06	740.548
32.08	848.921
32.1	668.299
32.12	740.548
32.14	704.424
32.16	1011.48
32.18	794.734
32.2	975.356
32.22	866.983
32.24	957.294
32.26	939.232
32.28	1155.98
32.3	1228.23
32.32	1155.98
32.34	1318.54
32.36	1463.03
32.38	1336.6
32.4	1282.41
32.42	1192.1
32.44	1155.98
32.46	921.169
32.48	1047.6
32.5	1300.47
32.52	1029.54
32.54	993.418
32.56	1083.73
32.58	1372.72
32.6	1444.97
32.62	1535.28
32.64	1806.21
32.66	1914.59
32.68	1679.78
32.7	1860.4
32.72	1553.34
32.74	1426.91
32.76	1282.41
32.78	1083.73
32.8	1390.79
32.82	1318.54
32.84	993.418
32.86	830.859
32.88	957.294
32.9	848.921
32.92	1029.54
32.94	866.983
32.96	1083.73
32.98	939.232
33	812.797
33.02	758.61
33.04	848.921
33.06	830.859
33.08	885.045
33.1	812.797
33.12	830.859
33.14	722.486
33.16	614.113
33.18	848.921
33.2	668.299
33.22	830.859
33.24	776.672
33.26	885.045
33.28	848.921
33.3	686.362
33.32	740.548
33.34	632.175
33.36	577.989
33.38	541.864
33.4	885.045
33.42	577.989
33.44	704.424
33.46	722.486
33.48	632.175
33.5	704.424
33.52	776.672
33.54	921.169
33.56	903.107
33.58	921.169
33.6	1011.48
33.62	921.169
33.64	885.045
33.66	1011.48
33.68	921.169
33.7	740.548
33.72	885.045
33.74	776.672
33.76	1083.73
33.78	975.356
33.8	885.045
33.82	650.237
33.84	614.113
33.86	812.797
33.88	614.113
33.9	885.045
33.92	794.734
33.94	722.486
33.96	921.169
33.98	866.983
34	939.232
34.02	993.418
34.04	1047.6
34.06	1011.48
34.08	939.232
34.1	885.045
34.12	722.486
34.14	704.424
