Sample	 
Comments	 
Filename	C:\Data\西出研\梅木\20211102オペ\LiFTFSI_02_0001_0079-2_C_2θ.raw
Goniometer	SmartLab(In-plane)
Attachment	標準Zステージ
Monochromater	None
X	0
Y	0
Z	0.00908
ScanningMode	2Theta
ScanningType	Continuos Scanning
X-Ray	40kV/30mA
入射スリット	0.300mm
受光スリット1	20.000mm
受光スリット2	20.000mm
None	
Start	5
Stop	60
Step	0.02
Speed	21.6746
Theta	0
5	3811.11
5.02	3395.68
5.04	3413.75
5.06	3377.62
5.08	3178.94
5.1	3540.18
5.12	3395.68
5.14	3106.69
5.16	3106.69
5.18	3720.8
5.2	3215.06
5.22	2908.01
5.24	3467.93
5.26	3305.37
5.28	3305.37
5.3	3594.37
5.32	3666.62
5.34	2889.94
5.36	3341.5
5.38	3269.25
5.4	3106.69
5.42	3558.24
5.44	3702.74
5.46	2908.01
5.48	3323.44
5.5	3612.43
5.52	3377.62
5.54	3305.37
5.56	3612.43
5.58	3106.69
5.6	3467.93
5.62	3702.74
5.64	3359.56
5.66	3612.43
5.68	2980.25
5.7	3431.81
5.72	3467.93
5.74	3576.31
5.76	3522.12
5.78	3359.56
5.8	3594.37
5.82	3178.94
5.84	3413.75
5.86	3287.31
5.88	3178.94
5.9	2998.32
5.92	3287.31
5.94	3233.12
5.96	3160.88
5.98	3305.37
6	2889.94
6.02	3359.56
6.04	2998.32
6.06	2709.32
6.08	3413.75
6.1	3504.06
6.12	3359.56
6.14	3215.06
6.16	3359.56
6.18	3648.55
6.2	3341.5
6.22	3377.62
6.24	2745.45
6.26	2962.19
6.28	2962.19
6.3	2926.07
6.32	2998.32
6.34	3197
6.36	3215.06
6.38	2944.13
6.4	3215.06
6.42	3431.81
6.44	3702.74
6.46	3215.06
6.48	3197
6.5	2655.14
6.52	3142.81
6.54	3088.63
6.56	3160.88
6.58	3251.19
6.6	2980.25
6.62	3052.5
6.64	2871.88
6.66	3251.19
6.68	3124.75
6.7	2944.13
6.72	2908.01
6.74	3178.94
6.76	3178.94
6.78	3269.25
6.8	2817.69
6.82	2980.25
6.84	2998.32
6.86	2889.94
6.88	2691.26
6.9	3251.19
6.92	3034.44
6.94	2799.63
6.96	3413.75
6.98	3576.31
7	3269.25
7.02	3323.44
7.04	2871.88
7.06	2691.26
7.08	2926.07
7.1	3016.38
7.12	3124.75
7.14	2926.07
7.16	3124.75
7.18	3034.44
7.2	3016.38
7.22	2745.45
7.24	3070.56
7.26	2962.19
7.28	2799.63
7.3	3269.25
7.32	3305.37
7.34	3359.56
7.36	3034.44
7.38	2817.69
7.4	3034.44
7.42	2582.89
7.44	2709.32
7.46	2908.01
7.48	3395.68
7.5	3178.94
7.52	2817.69
7.54	3197
7.56	3124.75
7.58	3052.5
7.6	3070.56
7.62	3251.19
7.64	3215.06
7.66	3287.31
7.68	2998.32
7.7	3323.44
7.72	2691.26
7.74	3269.25
7.76	2799.63
7.78	3124.75
7.8	3413.75
7.82	2781.57
7.84	3377.62
7.86	2908.01
7.88	2763.51
7.9	2871.88
7.92	3070.56
7.94	2546.76
7.96	3233.12
7.98	2871.88
8	3142.81
8.02	3106.69
8.04	3160.88
8.06	2799.63
8.08	3016.38
8.1	2980.25
8.12	3197
8.14	3178.94
8.16	3233.12
8.18	2926.07
8.2	3215.06
8.22	2889.94
8.24	2889.94
8.26	2889.94
8.28	2962.19
8.3	3160.88
8.32	2962.19
8.34	2853.82
8.36	2709.32
8.38	2835.76
8.4	3359.56
8.42	3088.63
8.44	3287.31
8.46	3070.56
8.48	3197
8.5	2980.25
8.52	2998.32
8.54	2980.25
8.56	3160.88
8.58	3305.37
8.6	2420.33
8.62	2709.32
8.64	3178.94
8.66	3088.63
8.68	3449.87
8.7	2998.32
8.72	2926.07
8.74	3052.5
8.76	2980.25
8.78	2709.32
8.8	2998.32
8.82	2853.82
8.84	2817.69
8.86	2763.51
8.88	3178.94
8.9	3431.81
8.92	3160.88
8.94	2944.13
8.96	3052.5
8.98	3124.75
9	3251.19
9.02	2564.82
9.04	3070.56
9.06	3142.81
9.08	3323.44
9.1	3233.12
9.12	2889.94
9.14	3233.12
9.16	3287.31
9.18	2510.64
9.2	3774.99
9.22	3612.43
9.24	3395.68
9.26	3287.31
9.28	3106.69
9.3	3016.38
9.32	2817.69
9.34	2980.25
9.36	2799.63
9.38	3142.81
9.4	3178.94
9.42	3070.56
9.44	3359.56
9.46	2835.76
9.48	2528.7
9.5	2492.58
9.52	2980.25
9.54	3215.06
9.56	2926.07
9.58	2926.07
9.6	2944.13
9.62	2962.19
9.64	2799.63
9.66	3088.63
9.68	3034.44
9.7	3233.12
9.72	2871.88
9.74	3088.63
9.76	2637.07
9.78	3395.68
9.8	2528.7
9.82	2871.88
9.84	2799.63
9.86	2709.32
9.88	2853.82
9.9	3070.56
9.92	2908.01
9.94	2709.32
9.96	2853.82
9.98	2889.94
10	2546.76
10.02	2709.32
10.04	2745.45
10.06	2799.63
10.08	3160.88
10.1	2709.32
10.12	2926.07
10.14	3178.94
10.16	2727.38
10.18	2871.88
10.2	3197
10.22	2835.76
10.24	2655.14
10.26	2510.64
10.28	2474.51
10.3	3052.5
10.32	2853.82
10.34	2745.45
10.36	2691.26
10.38	3088.63
10.4	2980.25
10.42	2799.63
10.44	2619.01
10.46	2709.32
10.48	2745.45
10.5	2799.63
10.52	2366.14
10.54	2835.76
10.56	3088.63
10.58	3088.63
10.6	2691.26
10.62	2998.32
10.64	2582.89
10.66	2582.89
10.68	2619.01
10.7	2817.69
10.72	2384.2
10.74	3142.81
10.76	2998.32
10.78	2799.63
10.8	2799.63
10.82	2817.69
10.84	2745.45
10.86	2709.32
10.88	2799.63
10.9	2492.58
10.92	2637.07
10.94	2817.69
10.96	2944.13
10.98	2655.14
11	2980.25
11.02	3142.81
11.04	2691.26
11.06	3070.56
11.08	2908.01
11.1	2546.76
11.12	2817.69
11.14	2817.69
11.16	2402.27
11.18	2655.14
11.2	2673.2
11.22	2889.94
11.24	3052.5
11.26	2637.07
11.28	2528.7
11.3	2817.69
11.32	2889.94
11.34	2763.51
11.36	2926.07
11.38	2348.08
11.4	3016.38
11.42	2492.58
11.44	2564.82
11.46	2456.45
11.48	2835.76
11.5	2203.58
11.52	2691.26
11.54	2727.38
11.56	3016.38
11.58	2853.82
11.6	2908.01
11.62	3269.25
11.64	2438.39
11.66	2835.76
11.68	2962.19
11.7	2420.33
11.72	2637.07
11.74	2637.07
11.76	2384.2
11.78	2871.88
11.8	2564.82
11.82	2835.76
11.84	2456.45
11.86	2366.14
11.88	2384.2
11.9	2348.08
11.92	2817.69
11.94	2926.07
11.96	2600.95
11.98	2275.83
12	2637.07
12.02	2582.89
12.04	2546.76
12.06	2727.38
12.08	2348.08
12.1	2528.7
12.12	2564.82
12.14	2691.26
12.16	2853.82
12.18	2528.7
12.2	2492.58
12.22	2510.64
12.24	3233.12
12.26	2817.69
12.28	2817.69
12.3	2691.26
12.32	2799.63
12.34	3106.69
12.36	2799.63
12.38	2853.82
12.4	2655.14
12.42	2871.88
12.44	3215.06
12.46	3323.44
12.48	3648.55
12.5	3287.31
12.52	4172.36
12.54	3901.42
12.56	3594.37
12.58	3305.37
12.6	2908.01
12.62	2564.82
12.64	2673.2
12.66	2781.57
12.68	2853.82
12.7	2637.07
12.72	2438.39
12.74	2799.63
12.76	2871.88
12.78	2619.01
12.8	2528.7
12.82	2438.39
12.84	2366.14
12.86	1986.84
12.88	2456.45
12.9	2889.94
12.92	3088.63
12.94	2528.7
12.96	2492.58
12.98	2727.38
13	2330.02
13.02	2781.57
13.04	2167.46
13.06	2420.33
13.08	2637.07
13.1	2330.02
13.12	2619.01
13.14	2384.2
13.16	2077.15
13.18	2528.7
13.2	2474.51
13.22	2456.45
13.24	2510.64
13.26	2492.58
13.28	2709.32
13.3	2528.7
13.32	2113.27
13.34	2348.08
13.36	2402.27
13.38	2709.32
13.4	2420.33
13.42	2564.82
13.44	2691.26
13.46	2745.45
13.48	2709.32
13.5	2510.64
13.52	2149.4
13.54	2691.26
13.56	2275.83
13.58	2293.89
13.6	2510.64
13.62	2131.33
13.64	2113.27
13.66	2239.71
13.68	2510.64
13.7	2402.27
13.72	2239.71
13.74	2257.77
13.76	2311.95
13.78	2510.64
13.8	2673.2
13.82	2348.08
13.84	2835.76
13.86	2348.08
13.88	2564.82
13.9	2402.27
13.92	2275.83
13.94	2853.82
13.96	2275.83
13.98	2564.82
14	2763.51
14.02	2655.14
14.04	2474.51
14.06	2239.71
14.08	2293.89
14.1	2311.95
14.12	2456.45
14.14	2402.27
14.16	2293.89
14.18	2528.7
14.2	2691.26
14.22	2582.89
14.24	2239.71
14.26	2257.77
14.28	2041.02
14.3	3070.56
14.32	2528.7
14.34	2293.89
14.36	2456.45
14.38	2221.64
14.4	2420.33
14.42	2420.33
14.44	2564.82
14.46	2384.2
14.48	2348.08
14.5	2402.27
14.52	2420.33
14.54	2402.27
14.56	2420.33
14.58	1968.77
14.6	2492.58
14.62	2420.33
14.64	2004.9
14.66	2293.89
14.68	2185.52
14.7	2330.02
14.72	2221.64
14.74	1968.77
14.76	2582.89
14.78	2600.95
14.8	2600.95
14.82	2492.58
14.84	2799.63
14.86	2402.27
14.88	2456.45
14.9	2438.39
14.92	2528.7
14.94	2420.33
14.96	2745.45
14.98	3106.69
15	2655.14
15.02	2456.45
15.04	2817.69
15.06	2727.38
15.08	2944.13
15.1	2474.51
15.12	2420.33
15.14	2781.57
15.16	2438.39
15.18	2366.14
15.2	2366.14
15.22	2239.71
15.24	2149.4
15.26	2528.7
15.28	2384.2
15.3	2528.7
15.32	2257.77
15.34	2239.71
15.36	2041.02
15.38	2131.33
15.4	2474.51
15.42	2835.76
15.44	2275.83
15.46	2095.21
15.48	2311.95
15.5	2492.58
15.52	2257.77
15.54	2167.46
15.56	2474.51
15.58	1896.53
15.6	2077.15
15.62	2257.77
15.64	2095.21
15.66	2221.64
15.68	2420.33
15.7	2311.95
15.72	1950.71
15.74	2185.52
15.76	2456.45
15.78	2402.27
15.8	2167.46
15.82	2492.58
15.84	2546.76
15.86	2420.33
15.88	2474.51
15.9	2492.58
15.92	2474.51
15.94	2673.2
15.96	2871.88
15.98	3178.94
16	2980.25
16.02	3720.8
16.04	4190.42
16.06	4533.6
16.08	3756.93
16.1	4154.29
16.12	3233.12
16.14	3251.19
16.16	2492.58
16.18	2835.76
16.2	2059.08
16.22	2239.71
16.24	2239.71
16.26	1842.34
16.28	2167.46
16.3	2113.27
16.32	2022.96
16.34	2366.14
16.36	2275.83
16.38	1968.77
16.4	2113.27
16.42	2908.01
16.44	2492.58
16.46	2113.27
16.48	2131.33
16.5	2041.02
16.52	2709.32
16.54	2528.7
16.56	2131.33
16.58	2221.64
16.6	2113.27
16.62	2257.77
16.64	2077.15
16.66	2059.08
16.68	2059.08
16.7	2582.89
16.72	2004.9
16.74	2366.14
16.76	2257.77
16.78	2113.27
16.8	2492.58
16.82	2221.64
16.84	1571.41
16.86	2438.39
16.88	2348.08
16.9	2239.71
16.92	2564.82
16.94	1968.77
16.96	1842.34
16.98	1932.65
17	2221.64
17.02	2059.08
17.04	2095.21
17.06	2149.4
17.08	2275.83
17.1	1535.28
17.12	2474.51
17.14	2366.14
17.16	2095.21
17.18	2041.02
17.2	2095.21
17.22	2095.21
17.24	2348.08
17.26	1986.84
17.28	2041.02
17.3	2149.4
17.32	1968.77
17.34	2185.52
17.36	2059.08
17.38	2022.96
17.4	2113.27
17.42	2095.21
17.44	2420.33
17.46	2167.46
17.48	1715.9
17.5	2059.08
17.52	1914.59
17.54	2203.58
17.56	2384.2
17.58	2402.27
17.6	2167.46
17.62	2077.15
17.64	1968.77
17.66	2131.33
17.68	2185.52
17.7	2492.58
17.72	2022.96
17.74	1950.71
17.76	2239.71
17.78	2041.02
17.8	2456.45
17.82	2185.52
17.84	3088.63
17.86	2889.94
17.88	3630.49
17.9	4551.66
17.92	5653.45
17.94	6538.5
17.96	7568.04
17.98	7586.1
18	7477.73
18.02	5779.89
18.04	5310.27
18.06	3991.73
18.08	3323.44
18.1	2926.07
18.12	2275.83
18.14	1986.84
18.16	2402.27
18.18	2348.08
18.2	2167.46
18.22	2113.27
18.24	2185.52
18.26	2420.33
18.28	2474.51
18.3	2185.52
18.32	2926.07
18.34	2691.26
18.36	2835.76
18.38	3142.81
18.4	3612.43
18.42	3829.18
18.44	4569.72
18.46	5021.28
18.48	5924.38
18.5	5165.77
18.52	5382.52
18.54	5201.9
18.56	3594.37
18.58	3485.99
18.6	2745.45
18.62	2311.95
18.64	2257.77
18.66	2293.89
18.68	2203.58
18.7	2149.4
18.72	2239.71
18.74	2041.02
18.76	2167.46
18.78	2149.4
18.8	2167.46
18.82	2185.52
18.84	2131.33
18.86	1824.28
18.88	1878.46
18.9	2330.02
18.92	1932.65
18.94	2059.08
18.96	2257.77
18.98	1968.77
19	2077.15
19.02	1950.71
19.04	2384.2
19.06	2655.14
19.08	2438.39
19.1	2781.57
19.12	3540.18
19.14	3865.3
19.16	4172.36
19.18	4930.97
19.2	5671.51
19.22	5707.64
19.24	5779.89
19.26	5852.14
19.28	4623.91
19.3	4100.11
19.32	3377.62
19.34	2582.89
19.36	2619.01
19.38	2384.2
19.4	2077.15
19.42	1914.59
19.44	1824.28
19.46	2149.4
19.48	2022.96
19.5	1715.9
19.52	1986.84
19.54	1842.34
19.56	1914.59
19.58	1932.65
19.6	1860.4
19.62	2185.52
19.64	1824.28
19.66	2311.95
19.68	1878.46
19.7	1806.21
19.72	1878.46
19.74	1860.4
19.76	1733.97
19.78	1914.59
19.8	2059.08
19.82	2077.15
19.84	1896.53
19.86	2041.02
19.88	2221.64
19.9	2022.96
19.92	1986.84
19.94	2113.27
19.96	1806.21
19.98	2402.27
20	2528.7
20.02	2637.07
20.04	2637.07
20.06	2908.01
20.08	2637.07
20.1	2438.39
20.12	2149.4
20.14	2311.95
20.16	2167.46
20.18	2311.95
20.2	1770.09
20.22	2113.27
20.24	1625.59
20.26	1752.03
20.28	2022.96
20.3	2004.9
20.32	2041.02
20.34	1842.34
20.36	1986.84
20.38	2131.33
20.4	2041.02
20.42	1715.9
20.44	1824.28
20.46	1950.71
20.48	1625.59
20.5	1878.46
20.52	1896.53
20.54	2221.64
20.56	1788.15
20.58	1752.03
20.6	1733.97
20.62	1788.15
20.64	1535.28
20.66	2095.21
20.68	2041.02
20.7	1896.53
20.72	1643.66
20.74	2239.71
20.76	2059.08
20.78	2004.9
20.8	1463.03
20.82	1968.77
20.84	1860.4
20.86	2167.46
20.88	2330.02
20.9	2510.64
20.92	2528.7
20.94	3377.62
20.96	4389.1
20.98	5346.4
21	6213.38
21.02	7369.36
21.04	7983.47
21.06	7297.11
21.08	6682.99
21.1	5834.07
21.12	4316.85
21.14	3269.25
21.16	2600.95
21.18	2149.4
21.2	2203.58
21.22	2004.9
21.24	1968.77
21.26	1986.84
21.28	1770.09
21.3	1806.21
21.32	1264.35
21.34	1697.84
21.36	1824.28
21.38	1878.46
21.4	1968.77
21.42	1824.28
21.44	1824.28
21.46	1733.97
21.48	1770.09
21.5	1788.15
21.52	2275.83
21.54	1752.03
21.56	1932.65
21.58	1824.28
21.6	1788.15
21.62	2167.46
21.64	2239.71
21.66	1968.77
21.68	1914.59
21.7	2203.58
21.72	1788.15
21.74	2059.08
21.76	1481.1
21.78	1661.72
21.8	1697.84
21.82	2041.02
21.84	1878.46
21.86	1770.09
21.88	1752.03
21.9	1571.41
21.92	1932.65
21.94	1932.65
21.96	1643.66
21.98	1444.97
22	1535.28
22.02	1878.46
22.04	1878.46
22.06	1553.34
22.08	1535.28
22.1	1625.59
22.12	1788.15
22.14	1824.28
22.16	1878.46
22.18	1444.97
22.2	1679.78
22.22	1553.34
22.24	1463.03
22.26	1553.34
22.28	1679.78
22.3	1715.9
22.32	1390.79
22.34	1354.66
22.36	1607.53
22.38	1932.65
22.4	1661.72
22.42	1950.71
22.44	1752.03
22.46	1535.28
22.48	1968.77
22.5	1770.09
22.52	1715.9
22.54	1679.78
22.56	1607.53
22.58	1372.72
22.6	1770.09
22.62	1463.03
22.64	1842.34
22.66	1553.34
22.68	2167.46
22.7	1878.46
22.72	1535.28
22.74	1842.34
22.76	1390.79
22.78	1806.21
22.8	1499.16
22.82	1589.47
22.84	1860.4
22.86	1733.97
22.88	1733.97
22.9	1752.03
22.92	1228.23
22.94	1553.34
22.96	1535.28
22.98	1914.59
23	1589.47
23.02	1517.22
23.04	1860.4
23.06	1625.59
23.08	2004.9
23.1	1968.77
23.12	2402.27
23.14	1878.46
23.16	2203.58
23.18	1824.28
23.2	1715.9
23.22	1553.34
23.24	2022.96
23.26	1770.09
23.28	2059.08
23.3	2041.02
23.32	2004.9
23.34	2167.46
23.36	2528.7
23.38	2185.52
23.4	1914.59
23.42	2077.15
23.44	1824.28
23.46	1481.1
23.48	1535.28
23.5	1752.03
23.52	1733.97
23.54	1463.03
23.56	1390.79
23.58	1643.66
23.6	1661.72
23.62	1463.03
23.64	1752.03
23.66	1517.22
23.68	1697.84
23.7	1354.66
23.72	1553.34
23.74	1354.66
23.76	1372.72
23.78	1390.79
23.8	1481.1
23.82	1553.34
23.84	1155.98
23.86	1228.23
23.88	1137.92
23.9	1535.28
23.92	1499.16
23.94	1752.03
23.96	1390.79
23.98	1643.66
24	1499.16
24.02	1499.16
24.04	1553.34
24.06	1390.79
24.08	1119.85
24.1	1444.97
24.12	1390.79
24.14	1318.54
24.16	1535.28
24.18	1553.34
24.2	1390.79
24.22	1372.72
24.24	1553.34
24.26	1752.03
24.28	1499.16
24.3	1517.22
24.32	1553.34
24.34	1426.91
24.36	1426.91
24.38	1282.41
24.4	1571.41
24.42	1137.92
24.44	1354.66
24.46	1481.1
24.48	1336.6
24.5	1481.1
24.52	1499.16
24.54	1210.16
24.56	1444.97
24.58	1499.16
24.6	1354.66
24.62	1155.98
24.64	1535.28
24.66	1444.97
24.68	1715.9
24.7	1408.85
24.72	1625.59
24.74	1661.72
24.76	1517.22
24.78	1354.66
24.8	1210.16
24.82	1408.85
24.84	1463.03
24.86	1571.41
24.88	1174.04
24.9	1192.1
24.92	1318.54
24.94	1264.35
24.96	1228.23
24.98	1210.16
25	1679.78
25.02	1481.1
25.04	1535.28
25.06	1625.59
25.08	1336.6
25.1	1426.91
25.12	1499.16
25.14	1643.66
25.16	1788.15
25.18	1607.53
25.2	1607.53
25.22	1986.84
25.24	1824.28
25.26	1878.46
25.28	1968.77
25.3	1968.77
25.32	2293.89
25.34	2655.14
25.36	2727.38
25.38	3269.25
25.4	2889.94
25.42	2853.82
25.44	2745.45
25.46	3016.38
25.48	2817.69
25.5	3522.12
25.52	4027.86
25.54	4732.28
25.56	5779.89
25.58	6574.62
25.6	6412.06
25.62	6032.76
25.64	5165.77
25.66	4985.15
25.68	3919.49
25.7	3413.75
25.72	2528.7
25.74	2239.71
25.76	1986.84
25.78	1607.53
25.8	1372.72
25.82	1246.29
25.84	1210.16
25.86	1390.79
25.88	1354.66
25.9	1499.16
25.92	1210.16
25.94	1083.73
25.96	1101.79
25.98	1300.47
26	1643.66
26.02	1408.85
26.04	1300.47
26.06	1192.1
26.08	1571.41
26.1	1210.16
26.12	1625.59
26.14	1300.47
26.16	1246.29
26.18	1481.1
26.2	1625.59
26.22	1824.28
26.24	2402.27
26.26	3106.69
26.28	2835.76
26.3	3034.44
26.32	3070.56
26.34	2619.01
26.36	2637.07
26.38	2311.95
26.4	1770.09
26.42	1426.91
26.44	1733.97
26.46	1372.72
26.48	1119.85
26.5	1499.16
26.52	1752.03
26.54	1354.66
26.56	1607.53
26.58	1607.53
26.6	1463.03
26.62	1860.4
26.64	1932.65
26.66	1444.97
26.68	1336.6
26.7	1155.98
26.72	1336.6
26.74	1408.85
26.76	1192.1
26.78	1408.85
26.8	1264.35
26.82	1119.85
26.84	1029.54
26.86	1481.1
26.88	1354.66
26.9	866.983
26.92	1300.47
26.94	939.232
26.96	1174.04
26.98	1318.54
27	1192.1
27.02	1535.28
27.04	1192.1
27.06	1264.35
27.08	1300.47
27.1	1137.92
27.12	1137.92
27.14	1155.98
27.16	1137.92
27.18	903.107
27.2	993.418
27.22	1354.66
27.24	1065.67
27.26	1444.97
27.28	1444.97
27.3	1553.34
27.32	1246.29
27.34	1517.22
27.36	2004.9
27.38	2185.52
27.4	2817.69
27.42	3811.11
27.44	4497.47
27.46	5418.64
27.48	5454.77
27.5	5960.51
27.52	5400.58
27.54	4840.66
27.56	4497.47
27.58	3666.62
27.6	2673.2
27.62	2059.08
27.64	1679.78
27.66	1553.34
27.68	1372.72
27.7	1300.47
27.72	1246.29
27.74	1318.54
27.76	1119.85
27.78	1137.92
27.8	1065.67
27.82	1264.35
27.84	1300.47
27.86	1354.66
27.88	1282.41
27.9	1408.85
27.92	1282.41
27.94	1426.91
27.96	1174.04
27.98	1119.85
28	1083.73
28.02	1155.98
28.04	975.356
28.06	1174.04
28.08	921.169
28.1	957.294
28.12	848.921
28.14	1155.98
28.16	1101.79
28.18	993.418
28.2	1047.6
28.22	957.294
28.24	1210.16
28.26	1282.41
28.28	1011.48
28.3	939.232
28.32	1047.6
28.34	812.797
28.36	993.418
28.38	1065.67
28.4	1282.41
28.42	1083.73
28.44	848.921
28.46	1119.85
28.48	993.418
28.5	848.921
28.52	939.232
28.54	1047.6
28.56	1065.67
28.58	1047.6
28.6	939.232
28.62	1101.79
28.64	1101.79
28.66	1246.29
28.68	1228.23
28.7	1155.98
28.72	1029.54
28.74	1119.85
28.76	1083.73
28.78	993.418
28.8	1390.79
28.82	1155.98
28.84	1047.6
28.86	975.356
28.88	1011.48
28.9	1137.92
28.92	1228.23
28.94	1065.67
28.96	975.356
28.98	1047.6
29	1065.67
29.02	830.859
29.04	1011.48
29.06	921.169
29.08	993.418
29.1	794.734
29.12	794.734
29.14	1065.67
29.16	1101.79
29.18	885.045
29.2	1119.85
29.22	957.294
29.24	866.983
29.26	957.294
29.28	975.356
29.3	1065.67
29.32	921.169
29.34	1137.92
29.36	1047.6
29.38	812.797
29.4	776.672
29.42	704.424
29.44	722.486
29.46	866.983
29.48	740.548
29.5	939.232
29.52	1137.92
29.54	993.418
29.56	993.418
29.58	921.169
29.6	740.548
29.62	758.61
29.64	1029.54
29.66	848.921
29.68	848.921
29.7	975.356
29.72	939.232
29.74	939.232
29.76	794.734
29.78	1047.6
29.8	1300.47
29.82	1119.85
29.84	1029.54
29.86	1390.79
29.88	1228.23
29.9	1065.67
29.92	1155.98
29.94	1300.47
29.96	1300.47
29.98	1354.66
30	1300.47
30.02	812.797
30.04	1137.92
30.06	921.169
30.08	776.672
30.1	885.045
30.12	921.169
30.14	812.797
30.16	812.797
30.18	957.294
30.2	740.548
30.22	740.548
30.24	1047.6
30.26	1101.79
30.28	975.356
30.3	794.734
30.32	830.859
30.34	939.232
30.36	830.859
30.38	1029.54
30.4	1174.04
30.42	1119.85
30.44	1318.54
30.46	957.294
30.48	1318.54
30.5	1354.66
30.52	1174.04
30.54	1083.73
30.56	1065.67
30.58	1047.6
30.6	1029.54
30.62	1137.92
30.64	993.418
30.66	1119.85
30.68	1047.6
30.7	848.921
30.72	921.169
30.74	812.797
30.76	885.045
30.78	1065.67
30.8	957.294
30.82	921.169
30.84	975.356
30.86	1029.54
30.88	812.797
30.9	776.672
30.92	921.169
30.94	885.045
30.96	921.169
30.98	794.734
31	830.859
31.02	866.983
31.04	740.548
31.06	776.672
31.08	1029.54
31.1	957.294
31.12	758.61
31.14	1011.48
31.16	686.362
31.18	740.548
31.2	722.486
31.22	704.424
31.24	921.169
31.26	812.797
31.28	758.61
31.3	921.169
31.32	1174.04
31.34	1137.92
31.36	1192.1
31.38	903.107
31.4	1047.6
31.42	866.983
31.44	921.169
31.46	1101.79
31.48	1228.23
31.5	848.921
31.52	740.548
31.54	848.921
31.56	794.734
31.58	903.107
31.6	975.356
31.62	1155.98
31.64	794.734
31.66	794.734
31.68	686.362
31.7	776.672
31.72	794.734
31.74	505.74
31.76	993.418
31.78	632.175
31.8	866.983
31.82	1029.54
31.84	794.734
31.86	812.797
31.88	921.169
31.9	921.169
31.92	885.045
31.94	921.169
31.96	758.61
31.98	740.548
32	559.927
32.02	614.113
32.04	794.734
32.06	650.237
32.08	686.362
32.1	993.418
32.12	776.672
32.14	975.356
32.16	758.61
32.18	776.672
32.2	812.797
32.22	722.486
32.24	866.983
32.26	957.294
32.28	903.107
32.3	1192.1
32.32	1282.41
32.34	1101.79
32.36	1390.79
32.38	1192.1
32.4	1643.66
32.42	1390.79
32.44	1643.66
32.46	1535.28
32.48	1318.54
32.5	1065.67
32.52	1137.92
32.54	957.294
32.56	1137.92
32.58	848.921
32.6	830.859
32.62	885.045
32.64	1101.79
32.66	1210.16
32.68	1499.16
32.7	1499.16
32.72	1607.53
32.74	1824.28
32.76	1824.28
32.78	1986.84
32.8	1553.34
32.82	1733.97
32.84	1300.47
32.86	1318.54
32.88	1282.41
32.9	1047.6
32.92	1119.85
32.94	1065.67
32.96	812.797
32.98	957.294
33	1083.73
33.02	1011.48
33.04	1300.47
33.06	812.797
33.08	1029.54
33.1	830.859
33.12	1119.85
33.14	1029.54
33.16	885.045
33.18	830.859
33.2	939.232
33.22	559.927
33.24	686.362
33.26	776.672
33.28	740.548
33.3	596.051
33.32	740.548
33.34	921.169
33.36	812.797
33.38	830.859
33.4	776.672
33.42	668.299
33.44	559.927
33.46	614.113
33.48	686.362
33.5	794.734
33.52	541.864
33.54	650.237
33.56	577.989
33.58	776.672
33.6	758.61
33.62	885.045
33.64	921.169
33.66	830.859
33.68	722.486
33.7	776.672
33.72	848.921
33.74	939.232
33.76	830.859
33.78	921.169
33.8	812.797
33.82	1029.54
33.84	848.921
33.86	1029.54
33.88	686.362
33.9	812.797
33.92	704.424
33.94	650.237
33.96	650.237
33.98	776.672
34	650.237
34.02	668.299
34.04	957.294
34.06	921.169
34.08	885.045
34.1	1011.48
