Sample	 
Comments	 
Filename	C:\Data\西出研\梅木\20211102オペ\ベッセル\LiFTFSI_2θ_θ.raw
Goniometer	SmartLab(In-plane)
Attachment	Zステージ単独
Monochromater	None
X	0
Y	0
Z	0.02762
ScanningMode	2Theta/Theta
ScanningType	Continuos Scanning
X-Ray	40kV/30mA
入射スリット	2/3deg
受光スリット1	20.000mm
受光スリット2	20.000mm
Cu_K-beta	
Start	5
Stop	60
Step	0.02
Speed	21.6746
Offset	0
5	47539.6
5.02	50844.9
5.04	49002.6
5.06	46184.9
5.08	47557.6
5.1	44649.6
5.12	44848.3
5.14	42048.7
5.16	42608.6
5.18	41253.9
5.2	39700.6
5.22	39809
5.24	38833.6
5.26	37551.2
5.28	37244.1
5.3	36557.8
5.32	34697.4
5.34	34354.2
5.36	34462.6
5.38	32096.4
5.4	31735.2
5.42	32078.4
5.44	32313.2
5.46	30109.6
5.48	29676.1
5.5	31265.6
5.52	31121.1
5.54	29495.5
5.56	29856.7
5.58	30055.4
5.6	28700.8
5.62	29621.9
5.64	28122.8
5.66	28754.9
5.68	26894.5
5.7	27869.9
5.72	26515.2
5.74	28628.5
5.76	27526.7
5.78	28357.6
5.8	27400.3
5.82	27039
5.84	27743.5
5.86	26479.1
5.88	27273.8
5.9	27797.6
5.92	26461
5.94	26551.4
5.96	26424.9
5.98	27508.7
6	27382.2
6.02	27472.5
6.04	26154
6.06	25431.5
6.08	25955.3
6.1	26226.2
6.12	27707.3
6.14	26497.2
6.16	27526.7
6.18	26262.4
6.2	25955.3
6.22	26497.2
6.24	26316.5
6.26	26533.3
6.28	25774.7
6.3	26316.5
6.32	26334.6
6.34	27021
6.36	26226.2
6.38	26840.3
6.4	25413.4
6.42	25738.6
6.44	25774.7
6.46	26984.8
6.48	26406.9
6.5	25576
6.52	26984.8
6.54	27400.3
6.56	25521.8
6.58	26443
6.6	27183.5
6.62	26804.2
6.64	25865
6.66	26208.2
6.68	25846.9
6.7	26587.5
6.72	27743.5
6.74	25810.8
6.76	26334.6
6.78	25539.9
6.8	25774.7
6.82	25034.1
6.84	25323.1
6.86	25485.7
6.88	24835.5
6.9	25865
6.92	26659.7
6.94	25016.1
6.96	25431.5
6.98	24853.5
7	26388.8
7.02	26786.2
7.04	24799.3
7.06	25377.3
7.08	26063.7
7.1	25576
7.12	27346.1
7.14	24907.7
7.16	25774.7
7.18	25305.1
7.2	26045.6
7.22	25070.3
7.24	25359.3
7.26	25485.7
7.28	24925.8
7.3	25774.7
7.32	24492.3
7.34	25955.3
7.36	25955.3
7.38	25539.9
7.4	25106.4
7.42	25088.3
7.44	25070.3
7.46	25268.9
7.48	25666.3
7.5	25539.9
7.52	24835.5
7.54	25485.7
7.56	25305.1
7.58	25142.5
7.6	24582.6
7.62	24113
7.64	25359.3
7.66	25919.2
7.68	24257.5
7.7	24799.3
7.72	24727.1
7.74	24185.2
7.76	24745.1
7.78	25214.8
7.8	24618.7
7.82	26587.5
7.84	25323.1
7.86	24925.8
7.88	24365.8
7.9	24871.6
7.92	24402
7.94	24383.9
7.96	24365.8
7.98	25413.4
8	24347.8
8.02	25106.4
8.04	24420
8.06	24672.9
8.08	23733.7
8.1	24185.2
8.12	24781.3
8.14	24709
8.16	24167.2
8.18	24221.3
8.2	24907.7
8.22	24600.6
8.24	24058.8
8.26	24438.1
8.28	24094.9
8.3	23914.3
8.32	24420
8.34	24420
8.36	24727.1
8.38	24149.1
8.4	25142.5
8.42	23896.2
8.44	25088.3
8.46	23625.3
8.48	24492.3
8.5	23697.5
8.52	24040.7
8.54	23643.3
8.56	24004.6
8.58	24149.1
8.6	24871.6
8.62	24474.2
8.64	23209.9
8.66	23878.2
8.68	24094.9
8.7	23101.5
8.72	23896.2
8.74	24058.8
8.76	24654.8
8.78	24203.3
8.8	23878.2
8.82	24781.3
8.84	24149.1
8.86	24420
8.88	23878.2
8.9	24582.6
8.92	23354.4
8.94	23769.8
8.96	24636.8
8.98	25106.4
9	23950.4
9.02	24275.5
9.04	25034.1
9.06	24239.4
9.08	23571.1
9.1	24347.8
9.12	25630.2
9.14	25196.7
9.16	24763.2
9.18	25756.6
9.2	27057.1
9.22	25901.1
9.24	27815.7
9.26	28393.7
9.28	29134.2
9.3	28285.3
9.32	27544.8
9.34	26479.1
9.36	23842
9.38	24149.1
9.4	23787.8
9.42	23246
9.44	23535
9.46	23336.3
9.48	22704.1
9.5	23535
9.52	23516.9
9.54	23318.2
9.56	23227.9
9.58	22342.9
9.6	23336.3
9.62	23679.5
9.64	22993.1
9.66	22071.9
9.68	22415.1
9.7	22017.8
9.72	22397.1
9.74	22180.3
9.76	23643.3
9.78	22812.5
9.8	23047.3
9.82	23191.8
9.84	22541.6
9.86	22577.7
9.88	22071.9
9.9	22180.3
9.92	21764.9
9.94	23173.7
9.96	23715.6
9.98	23444.7
10	22668
10.02	21530.1
10.04	22108.1
10.06	22776.4
10.08	22595.7
10.1	22108.1
10.12	21168.8
10.14	22776.4
10.16	22884.7
10.18	22559.6
10.2	22252.6
10.22	21512
10.24	22505.4
10.26	22216.4
10.28	22216.4
10.3	21819.1
10.32	22397.1
10.34	21620.4
10.36	22071.9
10.38	21710.7
10.4	22631.9
10.42	22758.3
10.44	21205
10.46	22252.6
10.48	21259.1
10.5	22053.9
10.52	21584.3
10.54	21186.9
10.56	22668
10.58	22288.7
10.6	21602.3
10.62	21331.4
10.64	21168.8
10.66	22776.4
10.68	22270.6
10.7	22180.3
10.72	21512
10.74	21819.1
10.76	20554.7
10.78	21692.6
10.8	21512
10.82	21494
10.84	21746.8
10.86	21764.9
10.88	20952.1
10.9	22324.8
10.92	22234.5
10.94	21349.5
10.96	21042.4
10.98	20319.9
11	21403.6
11.02	21728.8
11.04	20175.4
11.06	22451.2
11.08	20283.8
11.1	22397.1
11.12	20446.3
11.14	21764.9
11.16	20663.1
11.18	20861.8
11.2	21620.4
11.22	21873.3
11.24	21403.6
11.26	20536.7
11.28	21837.1
11.3	21945.5
11.32	22234.5
11.34	21205
11.36	21638.5
11.38	21367.5
11.4	20879.8
11.42	21439.8
11.44	20572.8
11.46	21981.6
11.48	21530.1
11.5	21168.8
11.52	21439.8
11.54	19922.5
11.56	21494
11.58	21060.5
11.6	20229.6
11.62	20012.9
11.64	21186.9
11.66	20518.6
11.68	20861.8
11.7	21548.1
11.72	20681.2
11.74	20265.7
11.76	21186.9
11.78	20699.2
11.8	20735.3
11.82	20356
11.84	21078.5
11.86	20049
11.88	20157.4
11.9	20554.7
11.92	20861.8
11.94	20807.6
11.96	21403.6
11.98	20572.8
12	20410.2
12.02	20030.9
12.04	20265.7
12.06	20428.3
12.08	21259.1
12.1	20627
12.12	20121.2
12.14	20446.3
12.16	20681.2
12.18	20428.3
12.2	18838.8
12.22	20681.2
12.24	20934
12.26	20789.5
12.28	20482.5
12.3	20608.9
12.32	20825.7
12.34	20879.8
12.36	20247.7
12.38	20572.8
12.4	20410.2
12.42	20934
12.44	21782.9
12.46	22505.4
12.48	21746.8
12.5	23011.2
12.52	22469.3
12.54	22252.6
12.56	21205
12.58	22144.2
12.6	21530.1
12.62	21313.3
12.64	20934
12.66	19362.6
12.68	20067
12.7	20139.3
12.72	19109.8
12.74	20157.4
12.76	20446.3
12.78	20067
12.8	19832.2
12.82	18549.8
12.84	20825.7
12.86	20645
12.88	19073.6
12.9	19452.9
12.92	19308.4
12.94	19362.6
12.96	20049
12.98	19850.3
13	19362.6
13.02	19615.5
13.04	18622.1
13.06	19976.7
13.08	19597.4
13.1	19940.6
13.12	20157.4
13.14	18965.3
13.16	18856.9
13.18	19019.4
13.2	18098.3
13.22	18983.3
13.24	19796.1
13.26	19398.7
13.28	19452.9
13.3	19037.5
13.32	19796.1
13.34	20229.6
13.36	19940.6
13.38	19308.4
13.4	19452.9
13.42	19073.6
13.44	19001.4
13.46	20229.6
13.48	18784.6
13.5	18387.3
13.52	19290.4
13.54	18604
13.56	18730.4
13.58	18820.8
13.6	19290.4
13.62	20807.6
13.64	17881.5
13.66	19760
13.68	19741.9
13.7	19127.8
13.72	18297
13.74	19308.4
13.76	18098.3
13.78	19561.3
13.8	18441.5
13.82	19416.8
13.84	19326.5
13.86	18802.7
13.88	20157.4
13.9	18513.7
13.92	19218.1
13.94	18676.3
13.96	18242.8
13.98	19109.8
14	18658.2
14.02	18676.3
14.04	19362.6
14.06	18513.7
14.08	18459.5
14.1	18080.2
14.12	18604
14.14	19398.7
14.16	18242.8
14.18	17791.2
14.2	18622.1
14.22	19904.5
14.24	18477.6
14.26	18351.1
14.28	18838.8
14.3	19796.1
14.32	18459.5
14.34	19344.6
14.36	19380.7
14.38	18098.3
14.4	18622.1
14.42	19272.3
14.44	19489.1
14.46	19019.4
14.48	18062.1
14.5	18856.9
14.52	18965.3
14.54	18965.3
14.56	18766.6
14.58	18242.8
14.6	18152.5
14.62	18640.1
14.64	18062.1
14.66	18585.9
14.68	18911.1
14.7	18947.2
14.72	17719
14.74	19019.4
14.76	17917.7
14.78	18116.3
14.8	18640.1
14.82	18784.6
14.84	18477.6
14.86	19380.7
14.88	18838.8
14.9	19019.4
14.92	18567.9
14.94	19760
14.96	19452.9
14.98	18748.5
15	19218.1
15.02	18893
15.04	20518.6
15.06	20121.2
15.08	20319.9
15.1	20319.9
15.12	20753.4
15.14	20410.2
15.16	19778.1
15.18	18983.3
15.2	19145.9
15.22	18838.8
15.24	18152.5
15.26	18676.3
15.28	17321.6
15.3	17213.2
15.32	17592.5
15.34	17935.7
15.36	19055.6
15.38	17917.7
15.4	18477.6
15.42	17411.9
15.44	17719
15.46	18315
15.48	18080.2
15.5	18297
15.52	17700.9
15.54	17484.2
15.56	16653.3
15.58	17917.7
15.6	18369.2
15.62	17267.4
15.64	18549.8
15.66	18062.1
15.68	18260.8
15.7	17628.7
15.72	17303.5
15.74	18134.4
15.76	18315
15.78	18531.8
15.8	18297
15.82	18224.7
15.84	18242.8
15.86	18712.4
15.88	20428.3
15.9	20356
15.92	19850.3
15.94	19994.8
15.96	20482.5
15.98	21692.6
16	24528.4
16.02	24239.4
16.04	25106.4
16.06	27364.2
16.08	29080.1
16.1	30886.3
16.12	31121.1
16.14	31175.3
16.16	29459.4
16.18	26533.3
16.2	23697.5
16.22	20807.6
16.24	18748.5
16.26	18802.7
16.28	18098.3
16.3	17719
16.32	17393.8
16.34	18260.8
16.36	18297
16.38	16653.3
16.4	17159
16.42	15985
16.44	16906.2
16.46	17466.1
16.48	17177.1
16.5	16942.3
16.52	17177.1
16.54	16436.6
16.56	17249.3
16.58	17556.4
16.6	17050.7
16.62	17411.9
16.64	18477.6
16.66	18170.5
16.68	18116.3
16.7	17538.3
16.72	17068.7
16.74	17556.4
16.76	18676.3
16.78	18242.8
16.8	18116.3
16.82	17249.3
16.84	17863.5
16.86	18585.9
16.88	17466.1
16.9	16888.1
16.92	17249.3
16.94	16346.2
16.96	16779.7
16.98	16942.3
17	16075.3
17.02	16292.1
17.04	17773.2
17.06	16129.5
17.08	16346.2
17.1	17141
17.12	17213.2
17.14	17122.9
17.16	17231.3
17.18	17448
17.2	16508.8
17.22	16870
17.24	16852
17.26	16039.2
17.28	17881.5
17.3	16707.5
17.32	17050.7
17.34	16093.4
17.36	17213.2
17.38	16743.6
17.4	17538.3
17.42	16472.7
17.44	16635.2
17.46	17321.6
17.48	16779.7
17.5	16274
17.52	16075.3
17.54	16779.7
17.56	17104.9
17.58	17104.9
17.6	16599.1
17.62	16888.1
17.64	16689.4
17.66	16364.3
17.68	18008
17.7	17285.5
17.72	17321.6
17.74	17430
17.76	17592.5
17.78	17700.9
17.8	18856.9
17.82	19561.3
17.84	19633.6
17.86	20085.1
17.88	23516.9
17.9	23625.3
17.92	26569.4
17.94	28267.3
17.96	32548
17.98	33559.5
18	36214.6
18.02	37479
18.04	38671.1
18.06	35383.7
18.08	33035.7
18.1	28935.6
18.12	24022.7
18.14	21277.2
18.16	18531.8
18.18	18351.1
18.2	17700.9
18.22	17574.5
18.24	18640.1
18.26	19543.2
18.28	19145.9
18.3	19579.4
18.32	21313.3
18.34	21403.6
18.36	23101.5
18.38	25919.2
18.4	28213.1
18.42	30055.4
18.44	34751.6
18.46	40368.9
18.48	47214.5
18.5	55053.4
18.52	64951.5
18.54	79708.3
18.56	94573.4
18.58	108517
18.6	121558
18.62	142655
18.64	152770
18.66	156075
18.68	141138
18.7	109168
18.72	78425.8
18.74	54457.4
18.76	34769.6
18.78	25052.2
18.8	21746.8
18.82	20356
18.84	18315
18.86	18297
18.88	17375.8
18.9	17773.2
18.92	17682.8
18.94	17122.9
18.96	17375.8
18.98	16833.9
19	16870
19.02	17971.8
19.04	17989.9
19.06	18441.5
19.08	18658.2
19.1	18260.8
19.12	18911.1
19.14	20193.5
19.16	21782.9
19.18	24149.1
19.2	26750
19.22	28881.4
19.24	32475.7
19.26	35781.1
19.28	36792.6
19.3	37063.5
19.32	36539.7
19.34	36846.8
19.36	31861.6
19.38	27490.6
19.4	21963.6
19.42	20590.8
19.44	18260.8
19.46	16093.4
19.48	16093.4
19.5	15298.6
19.52	15298.6
19.54	15840.5
19.56	14449.7
19.58	14738.7
19.6	14449.7
19.62	14666.5
19.64	14612.3
19.66	14251
19.68	14233
19.7	16219.8
19.72	15154.1
19.74	15334.8
19.76	14684.5
19.78	14648.4
19.8	15100
19.82	14919.3
19.84	14377.5
19.86	14052.4
19.88	15298.6
19.9	14901.3
19.92	15154.1
19.94	15298.6
19.96	15063.8
19.98	15840.5
20	16093.4
20.02	16147.6
20.04	17556.4
20.06	18748.5
20.08	17538.3
20.1	19344.6
20.12	18351.1
20.14	18730.4
20.16	18423.4
20.18	16924.2
20.2	16508.8
20.22	16057.2
20.24	14052.4
20.26	14178.8
20.28	13022.8
20.3	13925.9
20.32	14305.2
20.34	14558.1
20.36	13149.2
20.38	14612.3
20.4	13944
20.42	12986.7
20.44	12860.2
20.46	13510.5
20.48	14792.9
20.5	14178.8
20.52	13944
20.54	13402.1
20.56	13546.6
20.58	13582.7
20.6	13366
20.62	13998.2
20.64	13781.4
20.66	13528.5
20.68	14774.8
20.7	14666.5
20.72	14485.8
20.74	13420.2
20.76	14467.8
20.78	13727.2
20.8	13889.8
20.82	14395.5
20.84	16075.3
20.86	14919.3
20.88	16978.4
20.9	16581.1
20.92	18748.5
20.94	20157.4
20.96	23282.1
20.98	25268.9
21	28863.3
21.02	31681
21.04	33974.9
21.06	38075
21.08	38797.5
21.1	39520
21.12	38634.9
21.14	36485.5
21.16	30326.3
21.18	25738.6
21.2	20211.5
21.22	17014.5
21.24	15515.4
21.26	14919.3
21.28	14034.3
21.3	14323.3
21.32	14233
21.34	13564.7
21.36	14160.7
21.38	13058.9
21.4	12733.8
21.42	12697.7
21.44	12679.6
21.46	13492.4
21.48	13600.8
21.5	12715.8
21.52	12788
21.54	13474.4
21.56	12264.2
21.58	12390.6
21.6	13618.9
21.62	13944
21.64	13745.3
21.66	14467.8
21.68	14359.4
21.7	14666.5
21.72	16147.6
21.74	16310.1
21.76	16725.5
21.78	17989.9
21.8	18531.8
21.82	19615.5
21.84	19001.4
21.86	18134.4
21.88	18188.6
21.9	16472.7
21.92	15208.3
21.94	14142.7
21.96	12733.8
21.98	12444.8
22	12607.4
22.02	12083.6
22.04	13528.5
22.06	12769.9
22.08	12372.6
22.1	11866.8
22.12	12625.4
22.14	12408.7
22.16	11848.8
22.18	11523.6
22.2	12751.9
22.22	13564.7
22.24	11993.3
22.26	12444.8
22.28	13275.7
22.3	11866.8
22.32	11668.1
22.34	11704.3
22.36	12733.8
22.38	12517.1
22.4	12517.1
22.42	11794.6
22.44	11957.1
22.46	11451.4
22.48	12173.9
22.5	11975.2
22.52	12390.6
22.54	12860.2
22.56	13058.9
22.58	12589.3
22.6	12336.4
22.62	11866.8
22.64	12806.1
22.66	13040.9
22.68	13871.7
22.7	13600.8
22.72	13727.2
22.74	13673
22.76	13709.2
22.78	13709.2
22.8	13239.6
22.82	13131.2
22.84	14142.7
22.86	12932.5
22.88	12444.8
22.9	12968.6
22.92	13257.6
22.94	12462.9
22.96	13329.9
22.98	11957.1
23	13799.5
23.02	13347.9
23.04	13022.8
23.06	14214.9
23.08	15280.6
23.1	14684.5
23.12	15930.8
23.14	15822.4
23.16	16418.5
23.18	17375.8
23.2	18170.5
23.22	19001.4
23.24	18242.8
23.26	18820.8
23.28	19182
23.3	18008
23.32	17249.3
23.34	17430
23.36	16310.1
23.38	16815.9
23.4	16346.2
23.42	17285.5
23.44	17755.1
23.46	17430
23.48	15154.1
23.5	15894.7
23.52	14720.6
23.54	13167.3
23.56	12210
23.58	13185.4
23.6	12517.1
23.62	11595.9
23.64	11650.1
23.66	11343
23.68	11884.9
23.7	11595.9
23.72	11957.1
23.74	11614
23.76	11577.8
23.78	11595.9
23.8	11451.4
23.82	11126.3
23.84	10783.1
23.86	10873.4
23.88	11921
23.9	12155.8
23.92	11650.1
23.94	11848.8
23.96	12155.8
23.98	11270.8
24	11668.1
24.02	12101.6
24.04	10891.5
24.06	11794.6
24.08	11433.3
24.1	11614
24.12	10981.8
24.14	11270.8
24.16	11632
24.18	11126.3
24.2	11614
24.22	11126.3
24.24	11198.5
24.26	11632
24.28	11487.5
24.3	11017.9
24.32	11830.7
24.34	11361.1
24.36	11632
24.38	11505.6
24.4	11252.7
24.42	11433.3
24.44	11469.5
24.46	11614
24.48	10747
24.5	10927.6
24.52	10710.9
24.54	10494.1
24.56	11921
24.58	11144.3
24.6	11090.2
24.62	11921
24.64	11686.2
24.66	11577.8
24.68	11325
24.7	10927.6
24.72	12065.5
24.74	12264.2
24.76	11325
24.78	10837.3
24.8	11288.8
24.82	12065.5
24.84	11993.3
24.86	12462.9
24.88	12480.9
24.9	12047.5
24.92	12011.3
24.94	12300.3
24.96	11921
24.98	11921
25	12228.1
25.02	12336.4
25.04	12173.9
25.06	12029.4
25.08	12842.2
25.1	12643.5
25.12	11740.4
25.14	12788
25.16	13438.2
25.18	13835.6
25.2	15370.9
25.22	14937.4
25.24	16147.6
25.26	15226.4
25.28	16183.7
25.3	17303.5
25.32	17177.1
25.34	16833.9
25.36	17014.5
25.38	18802.7
25.4	17430
25.42	19814.2
25.44	20030.9
25.46	20193.5
25.48	20301.9
25.5	20229.6
25.52	20572.8
25.54	20771.5
25.56	24709
25.58	27869.9
25.6	32692.5
25.62	37262.2
25.64	44902.5
25.66	50971.4
25.68	60309.5
25.7	67462.1
25.72	74885.7
25.74	80250.1
25.76	80214
25.78	76457.1
25.8	67046.7
25.82	55505
25.84	41253.9
25.86	33902.6
25.88	25160.6
25.9	19145.9
25.92	15786.3
25.94	15370.9
25.96	13817.5
25.98	13329.9
26	12643.5
26.02	11379.2
26.04	11957.1
26.06	12083.6
26.08	12842.2
26.1	12155.8
26.12	12372.6
26.14	12697.7
26.16	12444.8
26.18	12661.6
26.2	13528.5
26.22	13618.9
26.24	16093.4
26.26	15316.7
26.28	16653.3
26.3	18405.3
26.32	18929.1
26.34	21512
26.36	21692.6
26.38	20861.8
26.4	20879.8
26.42	19597.4
26.44	17086.8
26.46	15515.4
26.48	13691.1
26.5	13835.6
26.52	12137.8
26.54	12426.8
26.56	12029.4
26.58	12860.2
26.6	12751.9
26.62	13655
26.64	13040.9
26.66	13817.5
26.68	13420.2
26.7	13727.2
26.72	14305.2
26.74	12824.1
26.76	13293.7
26.78	12318.4
26.8	11686.2
26.82	11614
26.84	11975.2
26.86	11072.1
26.88	11325
26.9	10909.5
26.92	10187.1
26.94	10295.4
26.96	10620.5
26.98	11162.4
27	10566.4
27.02	11415.3
27.04	10494.1
27.06	10223.2
27.08	10692.8
27.1	10277.4
27.12	10150.9
27.14	10187.1
27.16	10728.9
27.18	10801.2
27.2	11469.5
27.22	11415.3
27.24	11126.3
27.26	11577.8
27.28	12426.8
27.3	12788
27.32	12878.3
27.34	13456.3
27.36	13131.2
27.38	15298.6
27.4	17592.5
27.42	19633.6
27.44	21837.1
27.46	26894.5
27.48	30254.1
27.5	34986.4
27.52	38400.1
27.54	40495.3
27.56	43638.1
27.58	43511.7
27.6	39285.2
27.62	33270.5
27.64	29369.1
27.66	24889.6
27.68	19832.2
27.7	16797.8
27.72	15100
27.74	13817.5
27.76	13582.7
27.78	12517.1
27.8	12950.6
27.82	11993.3
27.84	10999.8
27.86	11505.6
27.88	12155.8
27.9	12011.3
27.92	12300.3
27.94	12300.3
27.96	12535.1
27.98	14287.2
28	14973.5
28.02	15858.6
28.04	17249.3
28.06	17863.5
28.08	20735.3
28.1	22216.4
28.12	24058.8
28.14	25250.9
28.16	23444.7
28.18	21223
28.2	19705.8
28.22	17014.5
28.24	16274
28.26	12824.1
28.28	12426.8
28.3	11090.2
28.32	10981.8
28.34	10241.2
28.36	10349.6
28.38	10421.9
28.4	9356.19
28.42	10078.7
28.44	9410.38
28.46	9067.2
28.48	10530.2
28.5	10331.5
28.52	9663.25
28.54	9518.75
28.56	8832.39
28.58	9283.94
28.6	9536.81
28.62	10096.7
28.64	10024.5
28.66	10024.5
28.68	9898.06
28.7	10042.6
28.72	9175.57
28.74	10548.3
28.76	10602.5
28.78	11270.8
28.8	9771.62
28.82	9988.37
28.84	10313.5
28.86	9464.57
28.88	10584.4
28.9	10855.4
28.92	10349.6
28.94	10963.7
28.96	10909.5
28.98	10150.9
29	9500.69
29.02	10150.9
29.04	9500.69
29.06	9265.88
29.08	9753.56
29.1	9627.12
29.12	10096.7
29.14	9681.31
29.16	10042.6
29.18	10241.2
29.2	9518.75
29.22	8976.89
29.24	9283.94
29.26	10331.5
29.28	9735.5
29.3	8958.83
29.32	8958.83
29.34	9247.82
29.36	9392.32
29.38	9392.32
29.4	9518.75
29.42	8705.96
29.44	10150.9
29.46	9735.5
29.48	9464.57
29.5	9482.63
29.52	9175.57
29.54	9157.51
29.56	10042.6
29.58	9518.75
29.6	9988.37
29.62	9843.87
29.64	10060.6
29.66	9934.18
29.68	9663.25
29.7	9753.56
29.72	9771.62
29.74	10421.9
29.76	10187.1
29.78	9356.19
29.8	9482.63
29.82	9157.51
29.84	9609.06
29.86	10710.9
29.88	9898.06
29.9	10277.4
29.92	10223.2
29.94	11668.1
29.96	11343
29.98	11812.6
30	13167.3
30.02	13438.2
30.04	15118
30.06	15533.4
30.08	16888.1
30.1	17411.9
30.12	19145.9
30.14	18694.3
30.16	18044.1
30.18	15876.6
30.2	13727.2
30.22	13095.1
30.24	11632
30.26	11270.8
30.28	10331.5
30.3	9591
30.32	9952.24
30.34	10241.2
30.36	9807.75
30.38	10205.1
30.4	9735.5
30.42	10006.4
30.44	9879.99
30.46	10548.3
30.48	10349.6
30.5	10891.5
30.52	11126.3
30.54	11577.8
30.56	11325
30.58	10765
30.6	10999.8
30.62	10873.4
30.64	9771.62
30.66	10169
30.68	9753.56
30.7	9591
30.72	9536.81
30.74	8633.71
30.76	9554.88
30.78	8742.08
30.8	9175.57
30.82	9699.37
30.84	9320.07
30.86	9861.93
30.88	10132.9
30.9	10494.1
30.92	10331.5
30.94	11559.8
30.96	10963.7
30.98	10476
31	10584.4
31.02	9356.19
31.04	9898.06
31.06	9446.5
31.08	8543.4
31.1	8633.71
31.12	9085.26
31.14	8579.52
31.16	8904.64
31.18	8398.9
31.2	8940.76
31.22	8290.53
31.24	8525.33
31.26	9410.38
31.28	9374.25
31.3	8742.08
31.32	8398.9
31.34	9229.76
31.36	9175.57
31.38	10349.6
31.4	8814.33
31.42	9988.37
31.44	10367.7
31.46	10873.4
31.48	10078.7
31.5	10259.3
31.52	11577.8
31.54	10313.5
31.56	9464.57
31.58	9753.56
31.6	9518.75
31.62	10114.8
31.64	9952.24
31.66	9103.32
31.68	9175.57
31.7	10114.8
31.72	9952.24
31.74	9825.81
31.76	9681.31
31.78	9645.19
31.8	9536.81
31.82	9013.01
31.84	8525.33
31.86	8976.89
31.88	8904.64
31.9	8796.27
31.92	8814.33
31.94	8760.14
31.96	9175.57
31.98	8742.08
32	8796.27
32.02	7531.92
32.04	9175.57
32.06	8940.76
32.08	8615.64
32.1	7640.29
32.12	8651.77
32.14	8778.2
32.16	9265.88
32.18	9302.01
32.2	8200.21
32.22	9302.01
32.24	9121.38
32.26	8832.39
32.28	9446.5
32.3	8976.89
32.32	9320.07
32.34	9374.25
32.36	10042.6
32.38	10656.7
32.4	10981.8
32.42	11884.9
32.44	12065.5
32.46	14142.7
32.48	13763.4
32.5	14124.6
32.52	14612.3
32.54	15172.2
32.56	13275.7
32.58	12986.7
32.6	12282.3
32.62	12842.2
32.64	11234.7
32.66	10512.2
32.68	10024.5
32.7	10169
32.72	9807.75
32.74	10439.9
32.76	10801.2
32.78	11162.4
32.8	11541.7
32.82	14088.5
32.84	15894.7
32.86	17610.6
32.88	19254.2
32.9	21186.9
32.92	24781.3
32.94	27761.5
32.96	31048.8
32.98	33505.3
33	35167
33.02	36919
33.04	34372.3
33.06	32096.4
33.08	25648.2
33.1	23986.5
33.12	22686.1
33.14	19760
33.16	17682.8
33.18	15497.3
33.2	14503.9
33.22	14702.6
33.24	15696
33.26	14901.3
33.28	15948.9
33.3	14973.5
33.32	12968.6
33.34	12986.7
33.36	11758.5
33.38	10187.1
33.4	10728.9
33.42	9717.43
33.44	7893.16
33.46	9482.63
33.48	8976.89
33.5	8615.64
33.52	7929.28
33.54	8507.27
33.56	8976.89
33.58	8453.08
33.6	8146.03
33.62	9681.31
33.64	7857.03
33.66	8182.15
33.68	8001.53
33.7	8471.15
33.72	8669.83
33.74	8669.83
33.76	8326.65
33.78	8922.7
33.8	8326.65
33.82	9645.19
33.84	9013.01
33.86	9663.25
33.88	10024.5
33.9	10349.6
33.92	10999.8
33.94	11108.2
33.96	11072.1
33.98	11487.5
34	12896.4
34.02	12065.5
34.04	12354.5
34.06	11776.5
34.08	10692.8
34.1	10313.5
34.12	10241.2
34.14	9970.3
34.16	9139.45
34.18	9916.12
34.2	9500.69
34.22	9536.81
34.24	8958.83
34.26	8579.52
34.28	8435.02
34.3	8760.14
34.32	8525.33
