Sample	 
Comments	 
Filename	C:\Data\西出研\梅木\210930オペ\PPOChloranil_2θ_θ.raw
Goniometer	SmartLab(In-plane)
Attachment	Zステージ単独
Monochromater	None
X	0
Y	0
Z	0.05294
ScanningMode	2Theta/Theta
ScanningType	Continuos Scanning
X-Ray	40kV/30mA
入射スリット	2/3deg
受光スリット1	20.000mm
受光スリット2	20.000mm
Cu_K-beta	
Start	10
Stop	90
Step	0.01
Speed	10.4018
Offset	0
10	64109.9
10.01	62931
10.02	64959.4
10.03	63485.8
10.04	64942
10.05	63347.1
10.06	65254.1
10.07	65340.8
10.08	64578
10.09	65548.8
10.1	68097.3
10.11	67091.8
10.12	64265.9
10.13	64959.4
10.14	64265.9
10.15	64491.3
10.16	64560.6
10.17	65410.1
10.18	64664.7
10.19	64890
10.2	65340.8
10.21	64543.3
10.22	63988.5
10.23	64768.7
10.24	65306.1
10.25	66381
10.26	66294.3
10.27	65184.8
10.28	66034.2
10.29	66259.6
10.3	65930.2
10.31	65150.1
10.32	65236.8
10.33	66866.4
10.34	65392.8
10.35	64612.7
10.36	65739.5
10.37	67265.1
10.38	66276.9
10.39	66103.6
10.4	65618.2
10.41	68409.3
10.42	65843.5
10.43	65635.5
10.44	67525.2
10.45	65548.8
10.46	66450.3
10.47	66172.9
10.48	64820.7
10.49	68045.3
10.5	66016.9
10.51	66814.4
10.52	67126.4
10.53	67802.5
10.54	66467.6
10.55	67663.9
10.56	65063.4
10.57	66814.4
10.58	67317.1
10.59	67802.5
10.6	67507.8
10.61	67386.5
10.62	66762.4
10.63	67941.2
10.64	68669.4
10.65	68270.6
10.66	66849
10.67	65496.8
10.68	66727.7
10.69	67507.8
10.7	66866.4
10.71	65878.2
10.72	66346.3
10.73	66710.4
10.74	67542.5
10.75	67993.2
10.76	67369.1
10.77	66589
10.78	68860.1
10.79	67178.4
10.8	67975.9
10.81	68704
10.82	66901.1
10.83	68392
10.84	68860.1
10.85	66294.3
10.86	67733.2
10.87	66554.3
10.88	67715.9
10.89	69397.5
10.9	67698.5
10.91	67958.6
10.92	68357.3
10.93	67906.6
10.94	68721.4
10.95	71027.1
10.96	66953.1
10.97	69241.5
10.98	69605.5
10.99	67767.9
11	66866.4
11.01	70125.6
11.02	68183.9
11.03	71737.9
11.04	69276.1
11.05	69986.9
11.06	69310.8
11.07	68097.3
11.08	67854.6
11.09	68669.4
11.1	69432.2
11.11	69050.8
11.12	68322.6
11.13	69865.6
11.14	69952.3
11.15	69536.2
11.16	70923.1
11.17	69900.2
11.18	71235.1
11.19	68270.6
11.2	69137.4
11.21	69206.8
11.22	69848.2
11.23	71027.1
11.24	69986.9
11.25	69882.9
11.26	70767.1
11.27	70403
11.28	70680.4
11.29	70420.3
11.3	70541.7
11.31	70195
11.32	69293.5
11.33	70195
11.34	70732.4
11.35	70143
11.36	69761.6
11.37	70195
11.38	70489.7
11.39	70143
11.4	71425.8
11.41	71547.2
11.42	71148.5
11.43	72119.3
11.44	72968.8
11.45	70420.3
11.46	70229.6
11.47	70697.7
11.48	72032.6
11.49	69726.9
11.5	71079.1
11.51	71287.2
11.52	72778.1
11.53	70385.7
11.54	71148.5
11.55	71547.2
11.56	74113
11.57	72535.4
11.58	71165.8
11.59	71391.2
11.6	71269.8
11.61	72032.6
11.62	72171.3
11.63	72691.4
11.64	73402.2
11.65	70038.9
11.66	71564.5
11.67	72431.4
11.68	73436.9
11.69	71772.6
11.7	70680.4
11.71	73454.2
11.72	70056.3
11.73	72483.4
11.74	71789.9
11.75	73818.3
11.76	72882.1
11.77	72691.4
11.78	73419.5
11.79	73055.5
11.8	73246.2
11.81	73818.3
11.82	73783.6
11.83	73350.2
11.84	74511.7
11.85	73644.9
11.86	72275.3
11.87	74511.7
11.88	72379.3
11.89	72240.7
11.9	72431.4
11.91	73904.9
11.92	74078.3
11.93	72414
11.94	74061
11.95	74234.3
11.96	74927.8
11.97	74581.1
11.98	74858.4
11.99	74511.7
12	71616.5
12.01	74199.7
12.02	74633.1
12.03	72535.4
12.04	73957
12.05	74078.3
12.06	74771.8
12.07	73662.2
12.08	75673.3
12.09	74546.4
12.1	75239.9
12.11	72916.8
12.12	75586.6
12.13	74806.4
12.14	75846.6
12.15	73991.6
12.16	76574.8
12.17	74893.1
12.18	74581.1
12.19	74875.8
12.2	73159.5
12.21	75517.2
12.22	72760.8
12.23	74771.8
12.24	74407.7
12.25	74477
12.26	75898.6
12.27	74737.1
12.28	75517.2
12.29	76505.4
12.3	74581.1
12.31	73072.8
12.32	75811.9
12.33	75447.9
12.34	74581.1
12.35	75933.3
12.36	73679.6
12.37	74927.8
12.38	75742.6
12.39	76800.1
12.4	76124
12.41	76176
12.42	74719.8
12.43	76886.8
12.44	76730.8
12.45	77996.3
12.46	78689.8
12.47	73679.6
12.48	76349.4
12.49	75881.3
12.5	73922.3
12.51	73957
12.52	75343.9
12.53	75118.5
12.54	75517.2
12.55	78083
12.56	78412.4
12.57	75603.9
12.58	77302.9
12.59	79990
12.6	78291
12.61	76678.8
12.62	76210.7
12.63	78863.1
12.64	78689.8
12.65	75655.9
12.66	76193.4
12.67	76505.4
12.68	76834.8
12.69	77892.3
12.7	76366.7
12.71	77614.9
12.72	78637.8
12.73	76228
12.74	77666.9
12.75	78169.7
12.76	78949.8
12.77	79279.2
12.78	77944.3
12.79	76730.8
12.8	79244.5
12.81	78429.7
12.82	76973.5
12.83	77979
12.84	79209.9
12.85	80804.8
12.86	77701.6
12.87	79435.3
12.88	77597.6
12.89	80094
12.9	79192.5
12.91	77562.9
12.92	78013.7
12.93	79140.5
12.94	78880.5
12.95	80666.1
12.96	78759.1
12.97	79868.7
12.98	80267.4
12.99	77372.2
13	78273.7
13.01	77875
13.02	79244.5
13.03	81238.2
13.04	77441.6
13.05	79920.7
13.06	78065.7
13.07	80648.8
13.08	80579.5
13.09	80336.7
13.1	78707.1
13.11	80874.2
13.12	79834
13.13	80284.7
13.14	80250.1
13.15	78083
13.16	79938
13.17	78447.1
13.18	80683.5
13.19	80666.1
13.2	78256.4
13.21	78828.5
13.22	79764.6
13.23	80024.7
13.24	79608.6
13.25	79816.6
13.26	79556.6
13.27	79608.6
13.28	79487.3
13.29	81030.2
13.3	79955.3
13.31	78568.4
13.32	80475.4
13.33	80822.2
13.34	80423.4
13.35	80336.7
13.36	80250.1
13.37	79573.9
13.38	78637.8
13.39	79920.7
13.4	79747.3
13.41	79331.2
13.42	79175.2
13.43	78308.4
13.44	79660.6
13.45	78880.5
13.46	80302.1
13.47	80735.5
13.48	80718.1
13.49	82122.4
13.5	80406.1
13.51	78724.5
13.52	80839.5
13.53	80319.4
13.54	82001
13.55	81272.9
13.56	80596.8
13.57	80718.1
13.58	80579.5
13.59	79348.6
13.6	82798.5
13.61	81064.9
13.62	81238.2
13.63	80111.4
13.64	80319.4
13.65	82053
13.66	82001
13.67	81897
13.68	81862.3
13.69	82365.1
13.7	81567.6
13.71	81741
13.72	80718.1
13.73	78932.5
13.74	82053
13.75	82538.5
13.76	82954.5
13.77	81099.5
13.78	81359.6
13.79	82417.1
13.8	82053
13.81	81602.3
13.82	82625.1
13.83	80804.8
13.84	83578.6
13.85	83526.6
13.86	81619.6
13.87	83561.3
13.88	82174.4
13.89	83127.9
13.9	82070.4
13.91	81186.2
13.92	84012.1
13.93	82313.1
13.94	86109.8
13.95	83821.4
13.96	83231.9
13.97	81342.3
13.98	81394.3
13.99	82607.8
14	82659.8
14.01	82659.8
14.02	80544.8
14.03	82278.4
14.04	80371.4
14.05	80215.4
14.06	82001
14.07	81203.6
14.08	79938
14.09	81827.7
14.1	82711.8
14.11	81030.2
14.12	81515.6
14.13	81099.5
14.14	81255.6
14.15	84896.2
14.16	83457.3
14.17	80735.5
14.18	82486.5
14.19	83665.3
14.2	82625.1
14.21	82139.7
14.22	81272.9
14.23	84428.1
14.24	82833.2
14.25	83596
14.26	82850.5
14.27	83977.4
14.28	82815.8
14.29	83682.7
14.3	82919.9
14.31	84064.1
14.32	83977.4
14.33	83353.3
14.34	81550.3
14.35	82261.1
14.36	81480.9
14.37	82919.9
14.38	83023.9
14.39	82659.8
14.4	83110.6
14.41	83127.9
14.42	82053
14.43	81359.6
14.44	82729.2
14.45	82573.1
14.46	81359.6
14.47	80614.1
14.48	81793
14.49	82087.7
14.5	81463.6
14.51	84376.1
14.52	82902.5
14.53	81758.3
14.54	82833.2
14.55	84168.1
14.56	81602.3
14.57	84965.6
14.58	82105.1
14.59	83994.7
14.6	81654.3
14.61	83231.9
14.62	83700
14.63	82209.1
14.64	80735.5
14.65	82954.5
14.66	82157.1
14.67	82018.4
14.68	83526.6
14.69	84029.4
14.7	84688.2
14.71	80908.8
14.72	82781.2
14.73	83665.3
14.74	82243.7
14.75	83058.6
14.76	81533
14.77	81394.3
14.78	82607.8
14.79	85329.6
14.8	83006.5
14.81	81307.6
14.82	81394.3
14.83	81966.4
14.84	83145.2
14.85	82035.7
14.86	81758.3
14.87	84012.1
14.88	82174.4
14.89	81151.5
14.9	84549.5
14.91	82642.5
14.92	81376.9
14.93	82573.1
14.94	82382.4
14.95	81689
14.96	84480.1
14.97	82070.4
14.98	82053
14.99	80995.5
15	81359.6
15.01	80510.1
15.02	81463.6
15.03	80475.4
15.04	81255.6
15.05	85208.3
15.06	81914.4
15.07	84064.1
15.08	81879.7
15.09	82174.4
15.1	82053
15.11	80250.1
15.12	82555.8
15.13	83249.3
15.14	80579.5
15.15	80908.8
15.16	83405.3
15.17	83162.6
15.18	82885.2
15.19	83075.9
15.2	82659.8
15.21	81151.5
15.22	81272.9
15.23	82659.8
15.24	82729.2
15.25	82815.8
15.26	82347.8
15.27	80926.2
15.28	81775.7
15.29	80267.4
15.3	83509.3
15.31	81793
15.32	81671.6
15.33	82642.5
15.34	80631.5
15.35	81099.5
15.36	81099.5
15.37	80423.4
15.38	82555.8
15.39	80978.2
15.4	81723.6
15.41	81654.3
15.42	79972.7
15.43	79036.5
15.44	79972.7
15.45	79851.3
15.46	80180.7
15.47	82954.5
15.48	80440.8
15.49	80648.8
15.5	81533
15.51	81359.6
15.52	80510.1
15.53	80076.7
15.54	80648.8
15.55	81689
15.56	82521.1
15.57	81082.2
15.58	81810.3
15.59	82521.1
15.6	81168.9
15.61	78031
15.62	80596.8
15.63	79886
15.64	80683.5
15.65	79539.3
15.66	79244.5
15.67	79972.7
15.68	80475.4
15.69	81706.3
15.7	81723.6
15.71	81394.3
15.72	80250.1
15.73	81151.5
15.74	79244.5
15.75	80163.4
15.76	80891.5
15.77	79573.9
15.78	81272.9
15.79	79504.6
15.8	80683.5
15.81	80336.7
15.82	78481.8
15.83	79348.6
15.84	80284.7
15.85	81272.9
15.86	79487.3
15.87	81134.2
15.88	80822.2
15.89	79383.2
15.9	80128.7
15.91	79088.5
15.92	79782
15.93	80440.8
15.94	80683.5
15.95	78568.4
15.96	79036.5
15.97	77840.3
15.98	78967.2
15.99	79556.6
16	78689.8
16.01	78447.1
16.02	77909.6
16.03	80007.4
16.04	79487.3
16.05	81359.6
16.06	79660.6
16.07	79140.5
16.08	80024.7
16.09	78412.4
16.1	78863.1
16.11	76730.8
16.12	79348.6
16.13	78863.1
16.14	79400.6
16.15	76973.5
16.16	78221.7
16.17	77545.6
16.18	78967.2
16.19	80146
16.2	78759.1
16.21	79296.6
16.22	77580.3
16.23	80406.1
16.24	76453.4
16.25	78984.5
16.26	78759.1
16.27	78412.4
16.28	76418.7
16.29	77354.9
16.3	77493.6
16.31	78239
16.32	78325.7
16.33	80007.4
16.34	77337.5
16.35	77198.9
16.36	75326.5
16.37	78031
16.38	77545.6
16.39	77233.5
16.4	78984.5
16.41	76678.8
16.42	79816.6
16.43	76852.1
16.44	75170.5
16.45	77354.9
16.46	74303.7
16.47	77961.7
16.48	76834.8
16.49	78585.8
16.5	77008.2
16.51	77337.5
16.52	76921.5
16.53	79071.2
16.54	79435.3
16.55	77562.9
16.56	74771.8
16.57	76401.4
16.58	77025.5
16.59	77302.9
16.6	76834.8
16.61	76418.7
16.62	77302.9
16.63	77302.9
16.64	76072
16.65	76418.7
16.66	77649.6
16.67	77320.2
16.68	78360.4
16.69	77268.2
16.7	76054.7
16.71	76678.8
16.72	76089.3
16.73	77614.9
16.74	76782.8
16.75	76020
16.76	76037.3
16.77	74719.8
16.78	76852.1
16.79	76574.8
16.8	76730.8
16.81	77580.3
16.82	77320.2
16.83	77562.9
16.84	76384
16.85	76522.7
16.86	76453.4
16.87	77753.6
16.88	75950.6
16.89	76505.4
16.9	76921.5
16.91	74494.4
16.92	74633.1
16.93	76314.7
16.94	75898.6
16.95	76401.4
16.96	75153.2
16.97	73714.3
16.98	75413.2
16.99	76020
17	75465.2
17.01	73540.9
17.02	75517.2
17.03	76037.3
17.04	76124
17.05	73454.2
17.06	74858.4
17.07	75499.9
17.08	75153.2
17.09	75083.8
17.1	74165
17.11	74373
17.12	75725.3
17.13	75395.9
17.14	75465.2
17.15	73957
17.16	72882.1
17.17	74893.1
17.18	75742.6
17.19	72379.3
17.2	72587.4
17.21	73142.1
17.22	73540.9
17.23	74338.4
17.24	74511.7
17.25	74009
17.26	75638.6
17.27	73523.5
17.28	75881.3
17.29	74251.7
17.3	74182.3
17.31	73575.6
17.32	73748.9
17.33	73575.6
17.34	73055.5
17.35	73852.9
17.36	72570
17.37	71720.6
17.38	72535.4
17.39	73107.5
17.4	75361.2
17.41	72084.6
17.42	71304.5
17.43	72951.4
17.44	73176.8
17.45	73870.3
17.46	74286.4
17.47	73662.2
17.48	73696.9
17.49	73176.8
17.5	74269
17.51	72899.4
17.52	72188.6
17.53	72292.7
17.54	72258
17.55	73090.1
17.56	71945.9
17.57	72882.1
17.58	70472.3
17.59	71841.9
17.6	74702.4
17.61	72240.7
17.62	72067.3
17.63	74910.5
17.64	74095.6
17.65	72431.4
17.66	71356.5
17.67	72223.3
17.68	71061.8
17.69	72292.7
17.7	71893.9
17.71	72934.1
17.72	71616.5
17.73	71044.4
17.74	72674.1
17.75	74165
17.76	74442.4
17.77	71252.5
17.78	73766.3
17.79	71928.6
17.8	72812.8
17.81	71720.6
17.82	71859.3
17.83	71061.8
17.84	71876.6
17.85	73003.5
17.86	70125.6
17.87	71807.3
17.88	70611
17.89	70385.7
17.9	71772.6
17.91	71599.2
17.92	70541.7
17.93	70090.9
17.94	71027.1
17.95	71269.8
17.96	72154
17.97	71443.2
17.98	73575.6
17.99	70403
18	71200.5
18.01	71235.1
18.02	69033.4
18.03	69588.2
18.04	69501.5
18.05	69432.2
18.06	71009.8
18.07	71113.8
18.08	71200.5
18.09	70073.6
18.1	70957.8
18.11	71131.1
18.12	70992.4
18.13	70437.7
18.14	68600
18.15	69536.2
18.16	70368.3
18.17	69432.2
18.18	71460.5
18.19	71408.5
18.2	69414.8
18.21	70593.7
18.22	71339.2
18.23	71356.5
18.24	72292.7
18.25	71495.2
18.26	71079.1
18.27	68634.7
18.28	68756
18.29	68842.7
18.3	70992.4
18.31	70888.4
18.32	68825.4
18.33	69016.1
18.34	69605.5
18.35	69449.5
18.36	69692.2
18.37	71651.2
18.38	71599.2
18.39	70455
18.4	69761.6
18.41	68478.7
18.42	70056.3
18.43	72015.3
18.44	70420.3
18.45	69016.1
18.46	69016.1
18.47	68357.3
18.48	68565.3
18.49	68704
18.5	70299
18.51	69501.5
18.52	69761.6
18.53	68149.3
18.54	66519.7
18.55	69397.5
18.56	69640.2
18.57	68686.7
18.58	69570.9
18.59	69102.8
18.6	69484.2
18.61	69848.2
18.62	68998.8
18.63	68964.1
18.64	68773.4
18.65	67490.5
18.66	69120.1
18.67	70090.9
18.68	70090.9
18.69	68877.4
18.7	70541.7
18.71	69813.6
18.72	67958.6
18.73	69241.5
18.74	67334.5
18.75	69085.4
18.76	67577.2
18.77	67559.8
18.78	69224.1
18.79	69986.9
18.8	68392
18.81	67421.1
18.82	68218.6
18.83	70385.7
18.84	68097.3
18.85	69241.5
18.86	68426.7
18.87	69553.5
18.88	67750.5
18.89	68721.4
18.9	67941.2
18.91	67525.2
18.92	67767.9
18.93	65912.9
18.94	69380.2
18.95	68253.3
18.96	67369.1
18.97	68218.6
18.98	69137.4
18.99	69830.9
19	69865.6
19.01	69328.1
19.02	68842.7
19.03	68131.9
19.04	66970.4
19.05	69206.8
19.06	67455.8
19.07	66606.3
19.08	66259.6
19.09	68236
19.1	70004.3
19.11	68236
19.12	67507.8
19.13	67871.9
19.14	67542.5
19.15	66381
19.16	67403.8
19.17	67369.1
19.18	66276.9
19.19	68045.3
19.2	64335.3
19.21	66346.3
19.22	66415.6
19.23	67109.1
19.24	67455.8
19.25	67317.1
19.26	67005.1
19.27	66259.6
19.28	66276.9
19.29	67005.1
19.3	68721.4
19.31	67126.4
19.32	67282.5
19.33	66814.4
19.34	66086.2
19.35	67109.1
19.36	65236.8
19.37	65514.1
19.38	67906.6
19.39	67369.1
19.4	67161.1
19.41	68270.6
19.42	67785.2
19.43	65132.7
19.44	66034.2
19.45	66276.9
19.46	66398.3
19.47	64283.3
19.48	68444
19.49	66849
19.5	67507.8
19.51	65930.2
19.52	66571.7
19.53	65652.8
19.54	68600
19.55	67109.1
19.56	66329
19.57	66693
19.58	66935.7
19.59	67681.2
19.6	65063.4
19.61	65288.8
19.62	67403.8
19.63	66450.3
19.64	65618.2
19.65	67455.8
19.66	64994.1
19.67	65392.8
19.68	66051.6
19.69	66485
19.7	65098.1
19.71	64942
19.72	66831.7
19.73	67091.8
19.74	67143.8
19.75	65236.8
19.76	66485
19.77	65878.2
19.78	66935.7
19.79	65254.1
19.8	66363.6
19.81	66554.3
19.82	64335.3
19.83	65288.8
19.84	64786
19.85	66450.3
19.86	65982.2
19.87	66138.3
19.88	64404.6
19.89	66745
19.9	65860.9
19.91	65028.7
19.92	66745
19.93	64924.7
19.94	64352.6
19.95	63693.8
19.96	66467.6
19.97	67646.5
19.98	64508.6
19.99	65063.4
20	64595.3
20.01	65392.8
20.02	63988.5
20.03	64768.7
20.04	64803.4
20.05	64560.6
20.06	64855.4
20.07	65271.4
20.08	65202.1
20.09	66415.6
20.1	64161.9
20.11	65306.1
20.12	66103.6
20.13	66797
20.14	65375.5
20.15	66016.9
20.16	65548.8
20.17	64283.3
20.18	65479.5
20.19	66155.6
20.2	65722.2
20.21	65479.5
20.22	64474
20.23	64057.9
20.24	67837.2
20.25	65444.8
20.26	66641
20.27	64109.9
20.28	65566.2
20.29	65306.1
20.3	64352.6
20.31	64474
20.32	65132.7
20.33	64387.3
20.34	64352.6
20.35	63087.1
20.36	63607.1
20.37	63711.2
20.38	64890
20.39	65479.5
20.4	63884.5
20.41	65410.1
20.42	63485.8
20.43	64144.6
20.44	62809.7
20.45	63867.2
20.46	62185.6
20.47	63277.8
20.48	64300.6
20.49	63295.1
20.5	64404.6
20.51	64179.2
20.52	64994.1
20.53	64092.6
20.54	64959.4
20.55	65150.1
20.56	62861.7
20.57	64699.3
20.58	64595.3
20.59	62480.3
20.6	65150.1
20.61	62445.6
20.62	63451.1
20.63	64265.9
20.64	61977.5
20.65	63087.1
20.66	64578
20.67	63468.5
20.68	64994.1
20.69	63191.1
20.7	63572.5
20.71	62844.3
20.72	63416.4
20.73	63329.8
20.74	64647.3
20.75	63312.4
20.76	62601.6
20.77	63711.2
20.78	61856.2
20.79	63104.4
20.8	63953.9
20.81	63555.1
20.82	63243.1
20.83	64005.9
20.84	62653.6
20.85	63451.1
20.86	64422
20.87	62549.6
20.88	62012.2
20.89	64422
20.9	63000.4
20.91	64612.7
20.92	64005.9
20.93	61596.1
20.94	63191.1
20.95	61353.4
20.96	63087.1
20.97	63693.8
20.98	64768.7
20.99	62462.9
21	63208.4
21.01	62757.7
21.02	63884.5
21.03	64387.3
21.04	63555.1
21.05	63347.1
21.06	64127.2
21.07	62965.7
21.08	62809.7
21.09	62775
21.1	63451.1
21.11	63104.4
21.12	62636.3
21.13	63607.1
21.14	61214.7
21.15	60295.9
21.16	61405.4
21.17	62150.9
21.18	61977.5
21.19	63624.5
21.2	64092.6
21.21	61942.9
21.22	63052.4
21.23	63537.8
21.24	62081.5
21.25	63763.2
21.26	61318.7
21.27	61717.5
21.28	62879
21.29	62428.3
21.3	63208.4
21.31	62965.7
21.32	61977.5
21.33	63000.4
21.34	62515
21.35	61492.1
21.36	62705.7
21.37	62740.3
21.38	62254.9
21.39	63243.1
21.4	63381.8
21.41	64109.9
21.42	63624.5
21.43	62029.5
21.44	63104.4
21.45	62567
21.46	61960.2
21.47	62844.3
21.48	63347.1
21.49	62341.6
21.5	61700.1
21.51	62653.6
21.52	60087.9
21.53	62497.6
21.54	63364.4
21.55	60555.9
21.56	62289.6
21.57	62012.2
21.58	62688.3
21.59	61613.5
21.6	60122.5
21.61	60937.3
21.62	61648.1
21.63	62324.3
21.64	63468.5
21.65	62879
21.66	62480.3
21.67	60833.3
21.68	62757.7
21.69	62775
21.7	62671
21.71	60555.9
21.72	61856.2
21.73	60555.9
21.74	62931
21.75	62376.3
21.76	63087.1
21.77	61440.1
21.78	60920
21.79	60139.9
21.8	59359.7
21.81	62757.7
21.82	61717.5
21.83	59758.5
21.84	61388.1
21.85	61249.4
21.86	59914.5
21.87	61890.8
21.88	61942.9
21.89	61682.8
21.9	60868
21.91	62150.9
21.92	60868
21.93	62393.6
21.94	60972
21.95	61925.5
21.96	61284.1
21.97	60347.9
21.98	59897.2
21.99	61873.5
22	60365.2
22.01	60417.3
22.02	60608
22.03	61890.8
22.04	59325.1
22.05	60382.6
22.06	60139.9
22.07	62393.6
22.08	60399.9
22.09	60226.6
22.1	61804.2
22.11	58250.2
22.12	61890.8
22.13	60746.6
22.14	61942.9
22.15	60694.6
22.16	60712
22.17	60070.5
22.18	58718.3
22.19	60451.9
22.2	61752.2
22.21	61977.5
22.22	60590.6
22.23	59706.5
22.24	61509.4
22.25	61526.8
22.26	61873.5
22.27	60295.9
22.28	62705.7
22.29	61110.7
22.3	63035
22.31	60018.5
22.32	58926.3
22.33	60486.6
22.34	61336.1
22.35	61422.8
22.36	60538.6
22.37	60018.5
22.38	59827.8
22.39	59671.8
22.4	59758.5
22.41	60105.2
22.42	60243.9
22.43	60573.3
22.44	60417.3
22.45	59134.4
22.46	58770.3
22.47	60798.7
22.48	61284.1
22.49	59879.8
22.5	60035.9
22.51	59238.4
22.52	60191.9
22.53	60399.9
22.54	58770.3
22.55	60243.9
22.56	59359.7
22.57	61076
22.58	60174.5
22.59	58805
22.6	59463.8
22.61	60347.9
22.62	59082.4
22.63	59394.4
22.64	60157.2
22.65	60243.9
22.66	59654.4
22.67	60001.2
22.68	60694.6
22.69	58770.3
22.7	59897.2
22.71	60278.6
22.72	58874.3
22.73	60347.9
22.74	58943.7
22.75	59515.8
22.76	60209.2
22.77	59619.8
22.78	59377.1
22.79	58805
22.8	59533.1
22.81	60018.5
22.82	60712
22.83	58648.9
22.84	58510.3
22.85	59463.8
22.86	59359.7
22.87	59654.4
22.88	60001.2
22.89	58562.3
22.9	57608.8
22.91	59897.2
22.92	59238.4
22.93	59463.8
22.94	58024.8
22.95	59533.1
22.96	60157.2
22.97	60625.3
22.98	61076
22.99	59827.8
23	59151.7
23.01	60243.9
23.02	59342.4
23.03	58943.7
23.04	58423.6
23.05	58076.8
23.06	58284.9
23.07	58961
23.08	57088.7
23.09	56793.9
23.1	58822.3
23.11	58926.3
23.12	59741.1
23.13	59931.8
23.14	59013
23.15	56135.2
23.16	60764
23.17	58579.6
23.18	57938.1
23.19	59862.5
23.2	57626.1
23.21	56898
23.22	58753
23.23	59689.1
23.24	58700.9
23.25	58302.2
23.26	57782.1
23.27	58666.3
23.28	57626.1
23.29	59741.1
23.3	57556.8
23.31	55996.5
23.32	56187.2
23.33	57782.1
23.34	56689.9
23.35	58371.6
23.36	57036.7
23.37	56395.2
23.38	57730.1
23.39	56377.9
23.4	58475.6
23.41	58648.9
23.42	59533.1
23.43	57591.4
23.44	57730.1
23.45	59567.8
23.46	57747.4
23.47	57678.1
23.48	58562.3
23.49	58527.6
23.5	58492.9
23.51	58596.9
23.52	58961
23.53	58822.3
23.54	57990.2
23.55	58440.9
23.56	56932.6
23.57	56932.6
23.58	56395.2
23.59	56915.3
23.6	57140.7
23.61	56048.5
23.62	56135.2
23.63	56499.2
23.64	56585.9
23.65	58336.9
23.66	57730.1
23.67	56846
23.68	55909.8
23.69	57955.5
23.7	57834.1
23.71	57192.7
23.72	57210
23.73	56828.6
23.74	56447.2
23.75	57834.1
23.76	56481.9
23.77	55892.5
23.78	56915.3
23.79	57504.7
23.8	56256.5
23.81	55597.7
23.82	58094.2
23.83	55979.1
23.84	55511.1
23.85	56932.6
23.86	58284.9
23.87	58440.9
23.88	57452.7
23.89	56464.6
23.9	55788.4
23.91	57504.7
23.92	55649.8
23.93	54991
23.94	55441.7
23.95	55996.5
23.96	56117.8
23.97	55251
23.98	55719.1
23.99	56083.2
24	56239.2
24.01	57262
24.02	56013.8
24.03	54436.2
24.04	54089.5
24.05	55875.1
24.06	57504.7
24.07	56551.2
24.08	54730.9
24.09	55199
24.1	57071.3
24.11	54332.2
24.12	53673.4
24.13	55303
24.14	56620.6
24.15	55511.1
24.16	55337.7
24.17	55095
24.18	57366.1
24.19	56065.8
24.2	54401.5
24.21	53725.4
24.22	53985.5
24.23	53500
24.24	54765.6
24.25	52962.6
24.26	52997.3
24.27	54609.6
24.28	54297.5
24.29	53898.8
24.3	53846.8
24.31	53777.4
24.32	53829.4
24.33	53968.1
24.34	54332.2
24.35	54782.9
