Sample	 
Comments	 
Filename	C:\Data\西出研\梅木\210903\PPOChloranilLiTfSI30wt_2θ_θ.raw
Goniometer	SmartLab(In-plane)
Attachment	Zステージ単独
Monochromater	None
X	0
Y	0
Z	-0.35756
ScanningMode	2Theta/Theta
ScanningType	Continuos Scanning
X-Ray	40kV/30mA
入射スリット	2/3deg
受光スリット1	20.000mm
受光スリット2	20.000mm
Cu_K-beta	
Start	10
Stop	90
Step	0.01
Speed	10.4018
Offset	0
10	24947
10.01	25779.2
10.02	25831.2
10.03	26108.6
10.04	24999
10.05	25345.8
10.06	26646
10.07	26490
10.08	26125.9
10.09	25484.5
10.1	26854
10.11	26923.4
10.12	27010.1
10.13	27391.5
10.14	25519.1
10.15	25709.8
10.16	26576.7
10.17	27720.9
10.18	26646
10.19	25033.7
10.2	26073.9
10.21	25657.8
10.22	26906
10.23	26490
10.24	26594
10.25	27079.4
10.26	26715.3
10.27	26975.4
10.28	27131.4
10.29	26836.7
10.3	26073.9
10.31	26472.6
10.32	27270.1
10.33	27460.8
10.34	26386
10.35	26299.3
10.36	25935.2
10.37	25969.9
10.38	26836.7
10.39	26992.7
10.4	26732.7
10.41	26403.3
10.42	26975.4
10.43	26663.3
10.44	27547.5
10.45	27200.8
10.46	27616.8
10.47	27720.9
10.48	27391.5
10.49	27824.9
10.5	27686.2
10.51	26906
10.52	26854
10.53	26888.7
10.54	28136.9
10.55	27391.5
10.56	28275.6
10.57	28795.7
10.58	27928.9
10.59	27616.8
10.6	27599.5
10.61	28761
10.62	30113.3
10.63	28951.7
10.64	29142.4
10.65	28674.4
10.66	29558.5
10.67	30910.7
10.68	29662.5
10.69	30720
10.7	31066.8
10.71	30737.4
10.72	31742.9
10.73	32159
10.74	33771.3
10.75	33840.6
10.76	34118
10.77	35418.2
10.78	35470.2
10.79	35921
10.8	37776
10.81	37342.5
10.82	39613.6
10.83	39787
10.84	39648.3
10.85	39683
10.86	38521.4
10.87	38660.1
10.88	35470.2
10.89	33493.9
10.9	32297.7
10.91	30217.3
10.92	30304
10.93	27339.5
10.94	30061.3
10.95	28899.7
10.96	27582.2
10.97	28206.3
10.98	25831.2
10.99	27079.4
11	27478.1
11.01	27530.2
11.02	27062.1
11.03	27304.8
11.04	27356.8
11.05	26940.7
11.06	26073.9
11.07	26646
11.08	27062.1
11.09	26594
11.1	27686.2
11.11	27790.2
11.12	27183.4
11.13	26958.1
11.14	27616.8
11.15	25484.5
11.16	26680.7
11.17	26715.3
11.18	26784.7
11.19	26871.4
11.2	26438
11.21	26195.3
11.22	26490
11.23	25813.9
11.24	27478.1
11.25	27339.5
11.26	27599.5
11.27	27738.2
11.28	27859.5
11.29	26507.3
11.3	27703.5
11.31	26472.6
11.32	27547.5
11.33	26992.7
11.34	26715.3
11.35	27270.1
11.36	27460.8
11.37	28136.9
11.38	25987.2
11.39	27443.5
11.4	27304.8
11.41	28518.3
11.42	27408.8
11.43	27582.2
11.44	26871.4
11.45	27443.5
11.46	27686.2
11.47	26663.3
11.48	27738.2
11.49	26195.3
11.5	27079.4
11.51	27530.2
11.52	27478.1
11.53	27131.4
11.54	26212.6
11.55	26264.6
11.56	26750
11.57	26802
11.58	27304.8
11.59	27720.9
11.6	27010.1
11.61	27062.1
11.62	27079.4
11.63	27287.4
11.64	26281.9
11.65	28362.3
11.66	28553
11.67	28136.9
11.68	26316.6
11.69	27460.8
11.7	27426.1
11.71	26576.7
11.72	27599.5
11.73	26940.7
11.74	26906
11.75	27582.2
11.76	27096.7
11.77	27114.1
11.78	28345
11.79	27218.1
11.8	27374.1
11.81	26143.2
11.82	27200.8
11.83	27408.8
11.84	28293
11.85	29073.1
11.86	28015.6
11.87	27322.1
11.88	28501
11.89	27842.2
11.9	27166.1
11.91	27790.2
11.92	27547.5
11.93	27807.5
11.94	26715.3
11.95	27218.1
11.96	27235.4
11.97	27963.6
11.98	27339.5
11.99	27720.9
12	27304.8
12.01	27564.8
12.02	27599.5
12.03	28188.9
12.04	27772.9
12.05	28067.6
12.06	28067.6
12.07	28050.2
12.08	27911.6
12.09	27131.4
12.1	27183.4
12.11	28518.3
12.12	27616.8
12.13	27928.9
12.14	28414.3
12.15	27304.8
12.16	26992.7
12.17	27998.2
12.18	28310.3
12.19	28171.6
12.2	27356.8
12.21	27998.2
12.22	27980.9
12.23	27894.2
12.24	28917.1
12.25	26368.6
12.26	28449
12.27	28709
12.28	28084.9
12.29	27235.4
12.3	28449
12.31	29419.8
12.32	28240.9
12.33	27755.5
12.34	29853.2
12.35	28414.3
12.36	27755.5
12.37	28240.9
12.38	28431.6
12.39	27842.2
12.4	27530.2
12.41	28726.4
12.42	28986.4
12.43	28397
12.44	29315.8
12.45	28899.7
12.46	27478.1
12.47	27686.2
12.48	29281.1
12.49	28449
12.5	28847.7
12.51	28310.3
12.52	28414.3
12.53	28587.7
12.54	27720.9
12.55	28171.6
12.56	27512.8
12.57	27963.6
12.58	26403.3
12.59	27928.9
12.6	28587.7
12.61	27062.1
12.62	28570.3
12.63	28622.3
12.64	27547.5
12.65	27391.5
12.66	28986.4
12.67	30113.3
12.68	28327.6
12.69	29454.5
12.7	28969.1
12.71	28778.4
12.72	27859.5
12.73	29194.4
12.74	29662.5
12.75	28449
12.76	27824.9
12.77	28414.3
12.78	28969.1
12.79	29281.1
12.8	28778.4
12.81	29627.9
12.82	28345
12.83	27824.9
12.84	28518.3
12.85	28622.3
12.86	29575.8
12.87	28466.3
12.88	27582.2
12.89	29246.5
12.9	30061.3
12.91	29021.1
12.92	29090.4
12.93	29246.5
12.94	28709
12.95	27946.2
12.96	28865.1
12.97	28882.4
12.98	30373.3
12.99	28587.7
13	28466.3
13.01	27720.9
13.02	27651.5
13.03	28709
13.04	29558.5
13.05	29489.2
13.06	28899.7
13.07	28518.3
13.08	27755.5
13.09	28431.6
13.1	30338.6
13.11	29610.5
13.12	27998.2
13.13	28622.3
13.14	28154.3
13.15	28258.3
13.16	28657
13.17	29090.4
13.18	28882.4
13.19	29454.5
13.2	29281.1
13.21	29610.5
13.22	29558.5
13.23	29506.5
13.24	29211.8
13.25	28691.7
13.26	27807.5
13.27	28327.6
13.28	29541.2
13.29	29679.9
13.3	28570.3
13.31	28795.7
13.32	28431.6
13.33	28865.1
13.34	29003.7
13.35	29610.5
13.36	28414.3
13.37	29038.4
13.38	29645.2
13.39	28310.3
13.4	29766.5
13.41	30113.3
13.42	29749.2
13.43	29558.5
13.44	28709
13.45	29177.1
13.46	29627.9
13.47	28570.3
13.48	29558.5
13.49	29090.4
13.5	29471.8
13.51	29870.6
13.52	29905.2
13.53	28119.6
13.54	29333.1
13.55	29627.9
13.56	28778.4
13.57	28119.6
13.58	29246.5
13.59	30009.3
13.6	29107.8
13.61	29298.5
13.62	29263.8
13.63	29229.1
13.64	27911.6
13.65	29801.2
13.66	30200
13.67	28778.4
13.68	29350.5
13.69	28847.7
13.7	29922.6
13.71	29749.2
13.72	28709
13.73	29645.2
13.74	29246.5
13.75	29679.9
13.76	29939.9
13.77	29939.9
13.78	30269.3
13.79	29801.2
13.8	29558.5
13.81	28899.7
13.82	29437.2
13.83	29645.2
13.84	29593.2
13.85	28570.3
13.86	29246.5
13.87	30876.1
13.88	28726.4
13.89	29385.1
13.9	29801.2
13.91	28691.7
13.92	28067.6
13.93	29610.5
13.94	29506.5
13.95	29385.1
13.96	28899.7
13.97	30460
13.98	29055.8
13.99	28639.7
14	30113.3
14.01	29055.8
14.02	29835.9
14.03	28882.4
14.04	29402.5
14.05	29159.8
14.06	29454.5
14.07	30512
14.08	31032.1
14.09	29437.2
14.1	29749.2
14.11	30009.3
14.12	30304
14.13	29281.1
14.14	29073.1
14.15	29887.9
14.16	29905.2
14.17	29801.2
14.18	29575.8
14.19	29575.8
14.2	29575.8
14.21	29454.5
14.22	29454.5
14.23	29575.8
14.24	27530.2
14.25	28067.6
14.26	28293
14.27	29159.8
14.28	28709
14.29	29887.9
14.3	29367.8
14.31	29749.2
14.32	29957.2
14.33	29887.9
14.34	29246.5
14.35	29801.2
14.36	29645.2
14.37	29142.4
14.38	29107.8
14.39	29887.9
14.4	29090.4
14.41	29055.8
14.42	29957.2
14.43	28917.1
14.44	29471.8
14.45	29939.9
14.46	28917.1
14.47	30269.3
14.48	29801.2
14.49	29731.9
14.5	28397
14.51	29818.6
14.52	29350.5
14.53	28310.3
14.54	29489.2
14.55	28345
14.56	28188.9
14.57	29402.5
14.58	29073.1
14.59	28969.1
14.6	28275.6
14.61	28986.4
14.62	29073.1
14.63	29090.4
14.64	29194.4
14.65	29159.8
14.66	29887.9
14.67	29905.2
14.68	29454.5
14.69	28795.7
14.7	28622.3
14.71	28206.3
14.72	28535.7
14.73	28171.6
14.74	29558.5
14.75	28674.4
14.76	29489.2
14.77	30356
14.78	27980.9
14.79	28865.1
14.8	28345
14.81	29246.5
14.82	28691.7
14.83	27668.8
14.84	28813
14.85	28726.4
14.86	28622.3
14.87	28709
14.88	27998.2
14.89	28639.7
14.9	27842.2
14.91	29627.9
14.92	28275.6
14.93	29922.6
14.94	28102.3
14.95	29610.5
14.96	28899.7
14.97	29281.1
14.98	29194.4
14.99	28951.7
15	28934.4
15.01	29055.8
15.02	30598.7
15.03	28882.4
15.04	27946.2
15.05	28275.6
15.06	28136.9
15.07	27980.9
15.08	29315.8
15.09	27824.9
15.1	28726.4
15.11	29177.1
15.12	28570.3
15.13	28067.6
15.14	29194.4
15.15	28015.6
15.16	28778.4
15.17	27807.5
15.18	28553
15.19	28726.4
15.2	28761
15.21	29125.1
15.22	28917.1
15.23	28206.3
15.24	28102.3
15.25	28414.3
15.26	28431.6
15.27	28136.9
15.28	27616.8
15.29	28188.9
15.3	29229.1
15.31	27894.2
15.32	28813
15.33	28726.4
15.34	28969.1
15.35	28119.6
15.36	28483.7
15.37	28119.6
15.38	27720.9
15.39	27616.8
15.4	29038.4
15.41	29419.8
15.42	27582.2
15.43	28674.4
15.44	29107.8
15.45	27876.9
15.46	28015.6
15.47	29627.9
15.48	28362.3
15.49	28466.3
15.5	28639.7
15.51	29558.5
15.52	29957.2
15.53	27876.9
15.54	28362.3
15.55	28553
15.56	29558.5
15.57	28899.7
15.58	28639.7
15.59	28639.7
15.6	29107.8
15.61	26490
15.62	28449
15.63	27824.9
15.64	28414.3
15.65	28674.4
15.66	28917.1
15.67	28327.6
15.68	29177.1
15.69	27790.2
15.7	27460.8
15.71	27322.1
15.72	27426.1
15.73	27235.4
15.74	28934.4
15.75	28535.7
15.76	27443.5
15.77	28431.6
15.78	28032.9
15.79	27998.2
15.8	27530.2
15.81	28605
15.82	28327.6
15.83	28553
15.84	28709
15.85	27096.7
15.86	28761
15.87	29402.5
15.88	28362.3
15.89	28032.9
15.9	28934.4
15.91	28709
15.92	28275.6
15.93	28067.6
15.94	28050.2
15.95	27582.2
15.96	28362.3
15.97	28258.3
15.98	27738.2
15.99	28483.7
16	26784.7
16.01	28136.9
16.02	28553
16.03	28223.6
16.04	29315.8
16.05	27304.8
16.06	27443.5
16.07	27599.5
16.08	27183.4
16.09	28622.3
16.1	28345
16.11	27651.5
16.12	27755.5
16.13	28466.3
16.14	27651.5
16.15	27790.2
16.16	28154.3
16.17	28154.3
16.18	28154.3
16.19	27391.5
16.2	27668.8
16.21	27911.6
16.22	28743.7
16.23	27790.2
16.24	27668.8
16.25	28188.9
16.26	27408.8
16.27	27703.5
16.28	27755.5
16.29	26663.3
16.3	26975.4
16.31	27530.2
16.32	27876.9
16.33	26871.4
16.34	27460.8
16.35	27200.8
16.36	26438
16.37	27790.2
16.38	27946.2
16.39	27478.1
16.4	27668.8
16.41	28709
16.42	28293
16.43	27564.8
16.44	27443.5
16.45	28206.3
16.46	28449
16.47	28171.6
16.48	27460.8
16.49	27911.6
16.5	27755.5
16.51	29038.4
16.52	28102.3
16.53	27634.2
16.54	27651.5
16.55	27547.5
16.56	28587.7
16.57	27079.4
16.58	28587.7
16.59	28119.6
16.6	27599.5
16.61	27062.1
16.62	28136.9
16.63	27408.8
16.64	27287.4
16.65	27270.1
16.66	27408.8
16.67	26871.4
16.68	27443.5
16.69	27512.8
16.7	27686.2
16.71	27790.2
16.72	26351.3
16.73	27114.1
16.74	27772.9
16.75	28275.6
16.76	26836.7
16.77	27460.8
16.78	27842.2
16.79	27530.2
16.8	28067.6
16.81	27443.5
16.82	27530.2
16.83	27547.5
16.84	26628.7
16.85	26750
16.86	27564.8
16.87	26940.7
16.88	28362.3
16.89	28293
16.9	28345
16.91	27634.2
16.92	29142.4
16.93	29506.5
16.94	28466.3
16.95	28518.3
16.96	29679.9
16.97	30772.1
16.98	30182.6
16.99	31396.2
17	31084.1
17.01	31500.2
17.02	32713.7
17.03	32332.3
17.04	34655.4
17.05	34950.1
17.06	34690.1
17.07	37030.5
17.08	37481.2
17.09	38954.8
17.1	40653.8
17.11	42439.4
17.12	42439.4
17.13	46149.4
17.14	48299.1
17.15	48125.8
17.16	49738
17.17	52009.1
17.18	53708.1
17.19	53656.1
17.2	54991
17.21	54245.5
17.22	53326.7
17.23	51593
17.24	46929.6
17.25	45161.2
17.26	40445.8
17.27	38504.1
17.28	36510.4
17.29	33459.2
17.3	30945.4
17.31	29887.9
17.32	30147.9
17.33	27946.2
17.34	29575.8
17.35	27564.8
17.36	26819.4
17.37	25692.5
17.38	26750
17.39	27027.4
17.4	27322.1
17.41	26975.4
17.42	26039.2
17.43	26836.7
17.44	27443.5
17.45	26507.3
17.46	25935.2
17.47	25085.7
17.48	25900.5
17.49	25675.2
17.5	26316.6
17.51	26195.3
17.52	26039.2
17.53	26351.3
17.54	26004.6
17.55	26021.9
17.56	25241.8
17.57	25779.2
17.58	26229.9
17.59	26576.7
17.6	26281.9
17.61	26836.7
17.62	26594
17.63	26039.2
17.64	26073.9
17.65	25640.5
17.66	25467.1
17.67	25553.8
17.68	26871.4
17.69	25935.2
17.7	25051.1
17.71	25519.1
17.72	25883.2
17.73	26039.2
17.74	25259.1
17.75	25588.5
17.76	25328.4
17.77	26472.6
17.78	24444.3
17.79	25987.2
17.8	25363.1
17.81	26472.6
17.82	25675.2
17.83	24739
17.84	24981.7
17.85	25103.1
17.86	25657.8
17.87	24929.7
17.88	26212.6
17.89	25883.2
17.9	25831.2
17.91	25345.8
17.92	25900.5
17.93	25501.8
17.94	24583
17.95	24860.4
17.96	25519.1
17.97	25328.4
17.98	25883.2
17.99	25744.5
18	25276.4
18.01	25328.4
18.02	25380.4
18.03	25484.5
18.04	25467.1
18.05	26524.6
18.06	25519.1
18.07	25883.2
18.08	25935.2
18.09	25865.9
18.1	27010.1
18.11	27322.1
18.12	26160.6
18.13	27322.1
18.14	27547.5
18.15	27218.1
18.16	27980.9
18.17	28275.6
18.18	27183.4
18.19	28570.3
18.2	28934.4
18.21	28501
18.22	30095.9
18.23	31361.5
18.24	32193.6
18.25	31638.9
18.26	31673.5
18.27	33199.1
18.28	34846.1
18.29	36233
18.3	37550.6
18.31	36042.3
18.32	38677.4
18.33	39214.9
18.34	38816.1
18.35	40289.7
18.36	40064.4
18.37	39908.3
18.38	38209.4
18.39	35019.5
18.4	34326
18.41	34430
18.42	31430.8
18.43	30286.6
18.44	28171.6
18.45	27235.4
18.46	26940.7
18.47	26750
18.48	26750
18.49	26021.9
18.5	25241.8
18.51	25796.5
18.52	25571.1
18.53	25328.4
18.54	25519.1
18.55	25137.7
18.56	26021.9
18.57	24999
18.58	25623.2
18.59	24357.6
18.6	25467.1
18.61	25363.1
18.62	24964.4
18.63	24929.7
18.64	24877.7
18.65	24964.4
18.66	24912.4
18.67	24374.9
18.68	24981.7
18.69	25484.5
18.7	25692.5
18.71	25172.4
18.72	25588.5
18.73	26004.6
18.74	24843
18.75	23629.5
18.76	24947
18.77	25276.4
18.78	25397.8
18.79	25692.5
18.8	25085.7
18.81	26316.6
18.82	25848.5
18.83	26992.7
18.84	26542
18.85	26923.4
18.86	27391.5
18.87	26975.4
18.88	28240.9
18.89	29073.1
18.9	29194.4
18.91	29974.6
18.92	29887.9
18.93	31950.9
18.94	31309.5
18.95	32800.4
18.96	34222
18.97	36371.7
18.98	37169.2
18.99	38244
19	40549.8
19.01	41433.9
19.02	44034.4
19.03	46218.8
19.04	48923.2
19.05	52806.6
19.06	55667.1
19.07	57522.1
19.08	61856.2
19.09	64092.6
19.1	68097.3
19.11	72570
19.12	75759.9
19.13	77892.3
19.14	80614.1
19.15	81099.5
19.16	78343.1
19.17	76106.7
19.18	70749.7
19.19	66224.9
19.2	59810.5
19.21	54089.5
19.22	48333.8
19.23	44086.4
19.24	38140
19.25	36129
19.26	33441.9
19.27	31881.6
19.28	30546.7
19.29	27062.1
19.3	28223.6
19.31	26923.4
19.32	25935.2
19.33	25865.9
19.34	25501.8
19.35	26767.4
19.36	26628.7
19.37	25796.5
19.38	26646
19.39	27235.4
19.4	27668.8
19.41	27720.9
19.42	27443.5
19.43	28934.4
19.44	27235.4
19.45	29263.8
19.46	29662.5
19.47	30806.7
19.48	29939.9
19.49	30234.6
19.5	30512
19.51	30997.4
19.52	30858.7
19.53	30858.7
19.54	30650.7
19.55	28969.1
19.56	29506.5
19.57	28223.6
19.58	27651.5
19.59	27859.5
19.6	25813.9
19.61	25588.5
19.62	24999
19.63	24479
19.64	24340.3
19.65	23716.2
19.66	23369.4
19.67	23681.5
19.68	23334.8
19.69	24114.9
19.7	23178.7
19.71	23213.4
19.72	22780
19.73	23872.2
19.74	24305.6
19.75	23889.5
19.76	23404.1
19.77	22138.5
19.78	23196.1
19.79	23889.5
19.8	24201.6
19.81	22606.6
19.82	23941.5
19.83	23404.1
19.84	22606.6
19.85	23144.1
19.86	23698.8
19.87	24218.9
19.88	22693.3
19.89	23577.5
19.9	23404.1
19.91	22329.2
19.92	22936
19.93	23126.7
19.94	21982.5
19.95	22832
19.96	23976.2
19.97	22901.3
19.98	22450.6
19.99	24340.3
20	23248.1
20.01	22606.6
20.02	22554.6
20.03	23750.8
20.04	23525.5
20.05	22866.7
20.06	21930.5
20.07	22346.6
20.08	22866.7
20.09	22381.3
20.1	24548.3
20.11	22641.3
20.12	21930.5
20.13	21687.8
20.14	22086.5
20.15	22467.9
20.16	22780
20.17	22155.9
20.18	21653.1
20.19	22259.9
20.2	22918.7
20.21	22259.9
20.22	23178.7
20.23	23178.7
20.24	22936
20.25	23248.1
20.26	22780
20.27	22901.3
20.28	22970.7
20.29	22676
20.3	21826.5
20.31	21878.5
20.32	22467.9
20.33	22710.6
20.34	23508.1
20.35	22485.3
20.36	22173.2
20.37	22901.3
20.38	21826.5
20.39	22589.3
20.4	22363.9
20.41	23646.8
20.42	22728
20.43	21878.5
20.44	21913.2
20.45	23542.8
20.46	22537.3
20.47	23438.8
20.48	22103.9
20.49	22433.3
20.5	22624
20.51	22953.4
20.52	22866.7
20.53	22624
20.54	21947.8
20.55	23525.5
20.56	22519.9
20.57	23057.4
20.58	21826.5
20.59	21965.2
20.6	23109.4
20.61	23386.8
20.62	22710.6
20.63	22034.5
20.64	21913.2
20.65	22398.6
20.66	22138.5
20.67	23386.8
20.68	21861.2
20.69	22554.6
20.7	20977
20.71	21410.4
20.72	21809.2
20.73	21531.8
20.74	21843.8
20.75	22346.6
20.76	21965.2
20.77	22953.4
20.78	20977
20.79	23161.4
20.8	22086.5
20.81	22034.5
20.82	21427.8
20.83	21653.1
20.84	21861.2
20.85	21913.2
20.86	21930.5
20.87	21323.7
20.88	22884
20.89	21497.1
20.9	22728
20.91	22086.5
20.92	21895.8
20.93	21965.2
20.94	21826.5
20.95	22433.3
20.96	22745.3
20.97	22259.9
20.98	21237.1
20.99	21601.1
21	21462.4
21.01	20821
21.02	21809.2
21.03	21843.8
21.04	22121.2
21.05	21913.2
21.06	22537.3
21.07	21774.5
21.08	22190.6
21.09	22485.3
21.1	22069.2
21.11	22259.9
21.12	22294.6
21.13	22242.6
21.14	21653.1
21.15	21566.4
21.16	22797.3
21.17	21566.4
21.18	21705.1
21.19	21046.4
21.2	21618.5
21.21	21965.2
21.22	21809.2
21.23	21687.8
21.24	21618.5
21.25	22693.3
21.26	22173.2
21.27	21791.8
21.28	22311.9
21.29	22173.2
21.3	22624
21.31	23126.7
21.32	22901.3
21.33	22294.6
21.34	23230.7
21.35	22398.6
21.36	23837.5
21.37	23369.4
21.38	22190.6
21.39	22624
21.4	22606.6
21.41	22797.3
21.42	22814.7
21.43	21687.8
21.44	21861.2
21.45	22485.3
21.46	21913.2
21.47	21081
21.48	21375.7
21.49	21514.4
21.5	21687.8
21.51	22485.3
21.52	22866.7
21.53	22849.3
21.54	22519.9
21.55	22190.6
21.56	22814.7
21.57	21739.8
21.58	22901.3
21.59	22936
21.6	23178.7
21.61	22814.7
21.62	23854.8
21.63	23438.8
21.64	24531
21.65	23404.1
21.66	24687
21.67	24600.3
21.68	24062.9
21.69	25276.4
21.7	25519.1
21.71	26039.2
21.72	25623.2
21.73	24444.3
21.74	24010.9
21.75	24479
21.76	23386.8
21.77	24045.5
21.78	23508.1
21.79	22918.7
21.8	22832
21.81	21618.5
21.82	21583.8
21.83	22658.6
21.84	22034.5
21.85	21965.2
21.86	20595.6
21.87	21046.4
21.88	21601.1
21.89	20508.9
21.9	21046.4
21.91	22207.9
21.92	21809.2
21.93	21150.4
21.94	20890.3
21.95	20006.2
21.96	20682.3
21.97	21029
21.98	22121.2
21.99	21462.4
22	21323.7
22.01	21583.8
22.02	20682.3
22.03	19763.5
22.04	20370.2
22.05	21150.4
22.06	20907.7
22.07	21965.2
22.08	21341.1
22.09	21566.4
22.1	21514.4
22.11	20456.9
22.12	20300.9
22.13	21427.8
22.14	20647.6
22.15	20838.3
22.16	21445.1
22.17	20734.3
22.18	20266.2
22.19	21202.4
22.2	21445.1
22.21	21341.1
22.22	21757.1
22.23	21254.4
22.24	21670.5
22.25	20977
22.26	21826.5
22.27	21254.4
22.28	19919.5
22.29	19815.5
22.3	21011.7
22.31	21133
22.32	20821
22.33	21289.1
22.34	21670.5
22.35	21618.5
22.36	21254.4
22.37	22537.3
22.38	20699.6
22.39	21497.1
22.4	21375.7
22.41	21375.7
22.42	20959.7
22.43	20855.7
22.44	20890.3
22.45	21219.7
22.46	21497.1
22.47	20023.5
22.48	22329.2
22.49	20786.3
22.5	21167.7
22.51	21410.4
22.52	21271.7
22.53	20474.3
22.54	21167.7
22.55	21063.7
22.56	20734.3
22.57	21254.4
22.58	20838.3
22.59	20751.6
22.6	21514.4
22.61	20665
22.62	20942.3
22.63	20092.9
22.64	20300.9
22.65	20248.9
22.66	20543.6
22.67	20144.9
22.68	20682.3
22.69	20300.9
22.7	20214.2
22.71	20994.3
22.72	21150.4
22.73	20821
22.74	21098.4
22.75	21046.4
22.76	21670.5
22.77	21427.8
22.78	21965.2
22.79	20422.2
22.8	20162.2
22.81	20300.9
22.82	21774.5
22.83	20959.7
22.84	21497.1
22.85	21185
22.86	21167.7
22.87	21271.7
22.88	22519.9
22.89	22294.6
22.9	21341.1
22.91	21913.2
22.92	23438.8
22.93	22953.4
22.94	22294.6
22.95	24028.2
22.96	23109.4
22.97	23386.8
22.98	24392.3
22.99	25605.8
23	23230.7
23.01	24999
23.02	26177.9
23.03	25432.5
23.04	27911.6
23.05	27876.9
23.06	29107.8
23.07	29939.9
23.08	32002.9
23.09	33979.3
23.1	35348.9
23.11	35921
23.12	37290.5
23.13	37203.9
23.14	38573.4
23.15	39076.2
23.16	38174.7
23.17	37932
23.18	35678.3
23.19	33424.5
23.2	32401.7
23.21	30408
23.22	28795.7
23.23	27426.1
23.24	26923.4
23.25	24409.6
23.26	24201.6
23.27	22519.9
23.28	21150.4
23.29	20942.3
23.3	21011.7
23.31	20873
23.32	20838.3
23.33	19746.1
23.34	20873
23.35	20717
23.36	20231.5
23.37	19590.1
23.38	21219.7
23.39	20595.6
23.4	19312.7
23.41	19295.4
23.42	19815.5
23.43	20404.9
23.44	20942.3
23.45	19330.1
23.46	19642.1
23.47	19607.4
23.48	21133
23.49	18879.3
23.5	19971.5
23.51	20092.9
23.52	19278
23.53	19694.1
23.54	19382.1
23.55	20699.6
23.56	20456.9
23.57	20196.9
23.58	19902.2
23.59	20179.5
23.6	19208.7
23.61	19711.5
23.62	19260.7
23.63	19382.1
23.64	19971.5
23.65	19312.7
23.66	19780.8
23.67	19330.1
23.68	19624.8
23.69	19763.5
23.7	19850.1
23.71	19711.5
23.72	18966
23.73	20543.6
23.74	19676.8
23.75	19156.7
23.76	17995.2
23.77	18185.9
23.78	19295.4
23.79	18844.6
23.8	18671.3
23.81	19174
23.82	19226
23.83	20075.5
23.84	19624.8
23.85	19624.8
23.86	19260.7
23.87	19226
23.88	19572.8
23.89	18948.7
23.9	19035.3
23.91	19832.8
23.92	20456.9
23.93	19780.8
23.94	18844.6
23.95	19798.1
23.96	19330.1
23.97	20231.5
23.98	20179.5
23.99	19226
24	19538.1
24.01	19884.8
24.02	19052.7
24.03	19330.1
24.04	19243.4
24.05	20092.9
24.06	19399.4
24.07	19000.7
24.08	19780.8
24.09	19503.4
24.1	19590.1
24.11	19642.1
24.12	20058.2
24.13	20508.9
24.14	18914
24.15	19867.5
24.16	19607.4
24.17	19884.8
24.18	19070
24.19	19572.8
24.2	19555.4
24.21	19590.1
24.22	19503.4
24.23	19052.7
24.24	18255.2
24.25	20179.5
24.26	19139.4
24.27	20352.9
24.28	19572.8
24.29	19018
24.3	19468.7
24.31	20595.6
24.32	19243.4
24.33	20110.2
24.34	19954.2
24.35	20387.6
24.36	21011.7
