Sample	 
Comments	 
Filename	C:\Data\西出研\梅木\20211102オペ\LiFTFSI30wt_03_0003_0079-1_C_2θ.raw
Goniometer	SmartLab(In-plane)
Attachment	標準Zステージ
Monochromater	None
X	0
Y	0
Z	0.01652
ScanningMode	2Theta
ScanningType	Continuos Scanning
X-Ray	40kV/30mA
入射スリット	0.300mm
受光スリット1	20.000mm
受光スリット2	20.000mm
None	
Start	5
Stop	60
Step	0.02
Speed	21.6746
Theta	0
5	5978.57
5.02	5653.45
5.04	5436.71
5.06	5761.82
5.08	5816.01
5.1	5599.27
5.12	5563.14
5.14	5201.9
5.16	5725.7
5.18	5382.52
5.2	5888.26
5.22	5671.51
5.24	5545.08
5.26	4786.47
5.28	5978.57
5.3	5400.58
5.32	5165.77
5.34	5508.95
5.36	5617.33
5.38	5093.53
5.4	5454.77
5.42	5093.53
5.44	5635.39
5.46	5165.77
5.48	4858.72
5.5	5292.21
5.52	5725.7
5.54	5490.89
5.56	5436.71
5.58	6249.5
5.6	5490.89
5.62	5635.39
5.64	5418.64
5.66	5617.33
5.68	4967.09
5.7	5779.89
5.72	5924.38
5.74	5165.77
5.76	5725.7
5.78	5201.9
5.8	5364.46
5.82	5834.07
5.84	5003.21
5.86	5003.21
5.88	5454.77
5.9	5328.33
5.92	5274.15
5.94	5256.08
5.96	5689.58
5.98	5075.46
6	5274.15
6.02	5418.64
6.04	4876.78
6.06	5707.64
6.08	5418.64
6.1	4822.59
6.12	4804.53
6.14	5201.9
6.16	5021.28
6.18	5165.77
6.2	5256.08
6.22	5328.33
6.24	5292.21
6.26	5093.53
6.28	5183.84
6.3	5057.4
6.32	4804.53
6.34	4894.84
6.36	4569.72
6.38	4894.84
6.4	5021.28
6.42	5075.46
6.44	5021.28
6.46	4678.1
6.48	5165.77
6.5	5201.9
6.52	4605.85
6.54	4714.22
6.56	5147.71
6.58	5165.77
6.6	4804.53
6.62	5436.71
6.64	5400.58
6.66	4876.78
6.68	4894.84
6.7	5219.96
6.72	5454.77
6.74	4822.59
6.76	5039.34
6.78	5400.58
6.8	4930.97
6.82	5256.08
6.84	5003.21
6.86	5292.21
6.88	4280.73
6.9	4985.15
6.92	4623.91
6.94	5057.4
6.96	5003.21
6.98	4894.84
7	5328.33
7.02	5454.77
7.04	4822.59
7.06	4515.54
7.08	4732.28
7.1	4334.92
7.12	4949.03
7.14	4949.03
7.16	4623.91
7.18	4226.54
7.2	4858.72
7.22	5454.77
7.24	5129.65
7.26	4840.66
7.28	4750.34
7.3	4063.98
7.32	4985.15
7.34	5617.33
7.36	4912.9
7.38	4641.97
7.4	4840.66
7.42	5039.34
7.44	5147.71
7.46	5201.9
7.48	5129.65
7.5	4623.91
7.52	4768.41
7.54	4768.41
7.56	4822.59
7.58	5075.46
7.6	5165.77
7.62	5201.9
7.64	4443.29
7.66	4786.47
7.68	5075.46
7.7	4912.9
7.72	5147.71
7.74	5129.65
7.76	4822.59
7.78	4714.22
7.8	4425.23
7.82	5057.4
7.84	4371.04
7.86	4949.03
7.88	5147.71
7.9	5165.77
7.92	4569.72
7.94	4750.34
7.96	4840.66
7.98	5472.83
8	5346.4
8.02	4894.84
8.04	4587.79
8.06	5021.28
8.08	4876.78
8.1	4551.66
8.12	4497.47
8.14	4696.16
8.16	4623.91
8.18	4334.92
8.2	4678.1
8.22	4840.66
8.24	4587.79
8.26	4822.59
8.28	4840.66
8.3	4822.59
8.32	4786.47
8.34	4858.72
8.36	4894.84
8.38	4479.41
8.4	4208.48
8.42	4949.03
8.44	4298.79
8.46	4587.79
8.48	4714.22
8.5	4479.41
8.52	4985.15
8.54	5039.34
8.56	5382.52
8.58	5201.9
8.6	5238.02
8.62	5147.71
8.64	5454.77
8.66	5111.59
8.68	4876.78
8.7	5364.46
8.72	4840.66
8.74	4461.35
8.76	4930.97
8.78	4425.23
8.8	5093.53
8.82	4371.04
8.84	4714.22
8.86	4696.16
8.88	4280.73
8.9	5057.4
8.92	4461.35
8.94	3991.73
8.96	4569.72
8.98	4497.47
9	4262.67
9.02	4443.29
9.04	4641.97
9.06	4280.73
9.08	5003.21
9.1	4280.73
9.12	4226.54
9.14	5093.53
9.16	4804.53
9.18	4515.54
9.2	4443.29
9.22	4316.85
9.24	4605.85
9.26	4569.72
9.28	4641.97
9.3	4298.79
9.32	4732.28
9.34	4822.59
9.36	4623.91
9.38	3648.55
9.4	4190.42
9.42	4063.98
9.44	4407.16
9.46	4569.72
9.48	4497.47
9.5	4371.04
9.52	4136.23
9.54	4985.15
9.56	4696.16
9.58	4768.41
9.6	4533.6
9.62	4894.84
9.64	4515.54
9.66	4443.29
9.68	4497.47
9.7	4443.29
9.72	4876.78
9.74	4208.48
9.76	4533.6
9.78	4858.72
9.8	4587.79
9.82	4678.1
9.84	4660.03
9.86	4714.22
9.88	4371.04
9.9	4244.6
9.92	4298.79
9.94	4768.41
9.96	4371.04
9.98	4967.09
10	4280.73
10.02	4334.92
10.04	4804.53
10.06	4443.29
10.08	4515.54
10.1	4298.79
10.12	4027.86
10.14	4389.1
10.16	4082.05
10.18	4389.1
10.2	4569.72
10.22	4497.47
10.24	4425.23
10.26	4587.79
10.28	4587.79
10.3	4443.29
10.32	4479.41
10.34	4804.53
10.36	4786.47
10.38	4894.84
10.4	4732.28
10.42	4641.97
10.44	4533.6
10.46	4786.47
10.48	4551.66
10.5	4226.54
10.52	4714.22
10.54	4136.23
10.56	4371.04
10.58	4515.54
10.6	4840.66
10.62	4172.36
10.64	4804.53
10.66	4371.04
10.68	4280.73
10.7	4461.35
10.72	4407.16
10.74	4154.29
10.76	4226.54
10.78	5021.28
10.8	4641.97
10.82	4497.47
10.84	4714.22
10.86	4967.09
10.88	4641.97
10.9	4623.91
10.92	4461.35
10.94	4461.35
10.96	4190.42
10.98	4280.73
11	4768.41
11.02	4389.1
11.04	3901.42
11.06	3829.18
11.08	4641.97
11.1	4678.1
11.12	4479.41
11.14	4244.6
11.16	4533.6
11.18	4461.35
11.2	4461.35
11.22	4172.36
11.24	4027.86
11.26	4714.22
11.28	4389.1
11.3	4840.66
11.32	4280.73
11.34	4371.04
11.36	4967.09
11.38	4443.29
11.4	4371.04
11.42	4334.92
11.44	4136.23
11.46	4389.1
11.48	4334.92
11.5	4208.48
11.52	4136.23
11.54	4118.17
11.56	4280.73
11.58	4407.16
11.6	4316.85
11.62	5003.21
11.64	4497.47
11.66	4352.98
11.68	4407.16
11.7	4714.22
11.72	4479.41
11.74	4389.1
11.76	4407.16
11.78	4714.22
11.8	4154.29
11.82	4371.04
11.84	4641.97
11.86	4425.23
11.88	4334.92
11.9	4569.72
11.92	4154.29
11.94	4280.73
11.96	4768.41
11.98	4894.84
12	4786.47
12.02	4461.35
12.04	3991.73
12.06	4515.54
12.08	4569.72
12.1	4298.79
12.12	4912.9
12.14	4479.41
12.16	4949.03
12.18	4605.85
12.2	4696.16
12.22	4515.54
12.24	4497.47
12.26	3756.93
12.28	4334.92
12.3	4533.6
12.32	4298.79
12.34	4678.1
12.36	4190.42
12.38	4750.34
12.4	4461.35
12.42	4371.04
12.44	4533.6
12.46	4172.36
12.48	4750.34
12.5	4804.53
12.52	4569.72
12.54	4515.54
12.56	3829.18
12.58	4949.03
12.6	4316.85
12.62	4714.22
12.64	4497.47
12.66	3973.67
12.68	4226.54
12.7	4371.04
12.72	5003.21
12.74	4750.34
12.76	4822.59
12.78	4858.72
12.8	4425.23
12.82	4750.34
12.84	4641.97
12.86	4515.54
12.88	4786.47
12.9	5490.89
12.92	4641.97
12.94	5021.28
12.96	5057.4
12.98	4912.9
13	4190.42
13.02	4967.09
13.04	4678.1
13.06	4660.03
13.08	4623.91
13.1	4587.79
13.12	4371.04
13.14	4750.34
13.16	4063.98
13.18	4732.28
13.2	4605.85
13.22	4316.85
13.24	4551.66
13.26	4840.66
13.28	4569.72
13.3	3901.42
13.32	4623.91
13.34	4479.41
13.36	3829.18
13.38	3702.74
13.4	4226.54
13.42	3937.55
13.44	4533.6
13.46	4425.23
13.48	4118.17
13.5	4280.73
13.52	4623.91
13.54	4587.79
13.56	4461.35
13.58	3955.61
13.6	4226.54
13.62	4425.23
13.64	4443.29
13.66	3937.55
13.68	4623.91
13.7	4461.35
13.72	3955.61
13.74	4443.29
13.76	4407.16
13.78	4027.86
13.8	3919.49
13.82	4009.8
13.84	4045.92
13.86	4244.6
13.88	4154.29
13.9	4100.11
13.92	4244.6
13.94	4045.92
13.96	4244.6
13.98	4208.48
14	4082.05
14.02	3865.3
14.04	4009.8
14.06	4479.41
14.08	4804.53
14.1	4208.48
14.12	4334.92
14.14	3702.74
14.16	4515.54
14.18	4316.85
14.2	4334.92
14.22	4244.6
14.24	4497.47
14.26	4389.1
14.28	4425.23
14.3	3865.3
14.32	4190.42
14.34	4371.04
14.36	4479.41
14.38	3756.93
14.4	4172.36
14.42	3937.55
14.44	4244.6
14.46	4190.42
14.48	3955.61
14.5	3756.93
14.52	4443.29
14.54	3648.55
14.56	4027.86
14.58	4280.73
14.6	4479.41
14.62	4208.48
14.64	4515.54
14.66	4262.67
14.68	4262.67
14.7	4154.29
14.72	3973.67
14.74	3774.99
14.76	4533.6
14.78	4316.85
14.8	3702.74
14.82	4569.72
14.84	4045.92
14.86	4190.42
14.88	4479.41
14.9	4154.29
14.92	4063.98
14.94	4371.04
14.96	4172.36
14.98	4118.17
15	3955.61
15.02	3449.87
15.04	4136.23
15.06	4190.42
15.08	4371.04
15.1	3919.49
15.12	3937.55
15.14	4136.23
15.16	4208.48
15.18	4136.23
15.2	3829.18
15.22	3630.49
15.24	3811.11
15.26	4027.86
15.28	4027.86
15.3	3955.61
15.32	4045.92
15.34	4316.85
15.36	4226.54
15.38	3847.24
15.4	4280.73
15.42	3901.42
15.44	3793.05
15.46	3937.55
15.48	4316.85
15.5	4136.23
15.52	4298.79
15.54	3955.61
15.56	3829.18
15.58	4605.85
15.6	4298.79
15.62	4082.05
15.64	4407.16
15.66	4190.42
15.68	4009.8
15.7	3955.61
15.72	4371.04
15.74	4063.98
15.76	4190.42
15.78	4118.17
15.8	3594.37
15.82	3576.31
15.84	4009.8
15.86	3973.67
15.88	3793.05
15.9	3811.11
15.92	4569.72
15.94	4063.98
15.96	3847.24
15.98	4082.05
16	3720.8
16.02	3937.55
16.04	4082.05
16.06	4172.36
16.08	3793.05
16.1	4461.35
16.12	3576.31
16.14	3793.05
16.16	4280.73
16.18	4262.67
16.2	4100.11
16.22	3847.24
16.24	4190.42
16.26	3756.93
16.28	4100.11
16.3	3955.61
16.32	3811.11
16.34	3702.74
16.36	3558.24
16.38	3991.73
16.4	3937.55
16.42	3847.24
16.44	4190.42
16.46	3811.11
16.48	3594.37
16.5	4280.73
16.52	3883.36
16.54	3666.62
16.56	3793.05
16.58	3919.49
16.6	3648.55
16.62	4136.23
16.64	3865.3
16.66	3594.37
16.68	3937.55
16.7	4063.98
16.72	4262.67
16.74	3738.86
16.76	3793.05
16.78	4461.35
16.8	4497.47
16.82	3738.86
16.84	4136.23
16.86	3774.99
16.88	4027.86
16.9	3919.49
16.92	3919.49
16.94	4045.92
16.96	4208.48
16.98	4876.78
17	4045.92
17.02	4154.29
17.04	5201.9
17.06	4479.41
17.08	5093.53
17.1	5093.53
17.12	4515.54
17.14	5165.77
17.16	5418.64
17.18	5346.4
17.2	5779.89
17.22	5454.77
17.24	6105.01
17.26	5418.64
17.28	5436.71
17.3	5093.53
17.32	4858.72
17.34	4154.29
17.36	4497.47
17.38	4136.23
17.4	3973.67
17.42	4082.05
17.44	3973.67
17.46	3829.18
17.48	4045.92
17.5	3485.99
17.52	3811.11
17.54	3847.24
17.56	4045.92
17.58	3558.24
17.6	4118.17
17.62	3558.24
17.64	3793.05
17.66	3540.18
17.68	3666.62
17.7	3720.8
17.72	4082.05
17.74	3955.61
17.76	3558.24
17.78	3449.87
17.8	3522.12
17.82	3684.68
17.84	3612.43
17.86	3630.49
17.88	3648.55
17.9	4298.79
17.92	3413.75
17.94	4389.1
17.96	4533.6
17.98	4208.48
18	3973.67
18.02	3883.36
18.04	4334.92
18.06	4696.16
18.08	5039.34
18.1	4822.59
18.12	5165.77
18.14	6032.76
18.16	5906.32
18.18	6628.81
18.2	6646.87
18.22	6267.56
18.24	6249.5
18.26	5527.02
18.28	5779.89
18.3	5039.34
18.32	4985.15
18.34	5364.46
18.36	5021.28
18.38	4551.66
18.4	5888.26
18.42	5238.02
18.44	4822.59
18.46	4949.03
18.48	4605.85
18.5	4768.41
18.52	4623.91
18.54	4226.54
18.56	3847.24
18.58	3811.11
18.6	3504.06
18.62	3504.06
18.64	4226.54
18.66	3829.18
18.68	4045.92
18.7	4244.6
18.72	4316.85
18.74	4226.54
18.76	4190.42
18.78	4425.23
18.8	4461.35
18.82	4407.16
18.84	4912.9
18.86	5201.9
18.88	5129.65
18.9	5581.2
18.92	6177.25
18.94	6159.19
18.96	6177.25
18.98	5906.32
19	5942.45
19.02	5816.01
19.04	6068.88
19.06	5924.38
19.08	5960.51
19.1	5490.89
19.12	5527.02
19.14	5852.14
19.16	5743.76
19.18	6195.32
19.2	6466.25
19.22	6086.94
19.24	6105.01
19.26	5617.33
19.28	5454.77
19.3	4605.85
19.32	5436.71
19.34	5328.33
19.36	4894.84
19.38	4262.67
19.4	4894.84
19.42	4696.16
19.44	4497.47
19.46	5382.52
19.48	4768.41
19.5	4587.79
19.52	4569.72
19.54	4533.6
19.56	4371.04
19.58	4298.79
19.6	4949.03
19.62	4858.72
19.64	4244.6
19.66	4244.6
19.68	4136.23
19.7	4208.48
19.72	3919.49
19.74	3847.24
19.76	3937.55
19.78	3973.67
19.8	3467.93
19.82	4100.11
19.84	3865.3
19.86	3756.93
19.88	3720.8
19.9	3467.93
19.92	3811.11
19.94	3377.62
19.96	3485.99
19.98	3738.86
20	3901.42
20.02	3702.74
20.04	3467.93
20.06	3648.55
20.08	3467.93
20.1	3467.93
20.12	3413.75
20.14	3522.12
20.16	3594.37
20.18	3955.61
20.2	3323.44
20.22	3124.75
20.24	3305.37
20.26	3811.11
20.28	3413.75
20.3	3233.12
20.32	3720.8
20.34	4045.92
20.36	3756.93
20.38	3287.31
20.4	3847.24
20.42	3160.88
20.44	3937.55
20.46	3883.36
20.48	3630.49
20.5	3359.56
20.52	3431.81
20.54	3540.18
20.56	3793.05
20.58	3756.93
20.6	3883.36
20.62	3522.12
20.64	3793.05
20.66	3738.86
20.68	3937.55
20.7	3341.5
20.72	3576.31
20.74	3612.43
20.76	3738.86
20.78	4172.36
20.8	3865.3
20.82	4118.17
20.84	3630.49
20.86	3829.18
20.88	3648.55
20.9	3720.8
20.92	4082.05
20.94	3901.42
20.96	3323.44
20.98	3594.37
21	3359.56
21.02	3666.62
21.04	3467.93
21.06	4208.48
21.08	3558.24
21.1	3341.5
21.12	3666.62
21.14	3233.12
21.16	3630.49
21.18	3793.05
21.2	3485.99
21.22	3215.06
21.24	4009.8
21.26	3720.8
21.28	3449.87
21.3	4063.98
21.32	3684.68
21.34	4389.1
21.36	3666.62
21.38	4154.29
21.4	4100.11
21.42	3901.42
21.44	4172.36
21.46	4027.86
21.48	4027.86
21.5	3991.73
21.52	3251.19
21.54	3522.12
21.56	3612.43
21.58	3323.44
21.6	3738.86
21.62	3666.62
21.64	3648.55
21.66	3576.31
21.68	3558.24
21.7	3395.68
21.72	3865.3
21.74	3558.24
21.76	3594.37
21.78	3919.49
21.8	3666.62
21.82	3522.12
21.84	3305.37
21.86	3594.37
21.88	3540.18
21.9	3612.43
21.92	3937.55
21.94	4045.92
21.96	3847.24
21.98	3666.62
22	3666.62
22.02	3774.99
22.04	3449.87
22.06	3142.81
22.08	3522.12
22.1	3070.56
22.12	3251.19
22.14	2980.25
22.16	3287.31
22.18	3431.81
22.2	3666.62
22.22	3052.5
22.24	3485.99
22.26	3504.06
22.28	3088.63
22.3	3793.05
22.32	3449.87
22.34	3305.37
22.36	3287.31
22.38	3467.93
22.4	3648.55
22.42	3359.56
22.44	3142.81
22.46	3594.37
22.48	3323.44
22.5	3377.62
22.52	3160.88
22.54	3197
22.56	3269.25
22.58	3630.49
22.6	3124.75
22.62	3106.69
22.64	3287.31
22.66	2619.01
22.68	3034.44
22.7	3070.56
22.72	3178.94
22.74	3467.93
22.76	3359.56
22.78	3052.5
22.8	3106.69
22.82	2998.32
22.84	3359.56
22.86	2889.94
22.88	2853.82
22.9	3467.93
22.92	3395.68
22.94	3160.88
22.96	3504.06
22.98	3702.74
23	3251.19
23.02	3919.49
23.04	3178.94
23.06	3287.31
23.08	3233.12
23.1	3558.24
23.12	3070.56
23.14	3088.63
23.16	3124.75
23.18	3016.38
23.2	3467.93
23.22	3485.99
23.24	3395.68
23.26	3233.12
23.28	2980.25
23.3	3052.5
23.32	3359.56
23.34	3070.56
23.36	2926.07
23.38	2709.32
23.4	3251.19
23.42	2763.51
23.44	2763.51
23.46	3178.94
23.48	3395.68
23.5	3160.88
23.52	3341.5
23.54	3070.56
23.56	2853.82
23.58	3178.94
23.6	3955.61
23.62	2980.25
23.64	3197
23.66	3106.69
23.68	3197
23.7	3070.56
23.72	3359.56
23.74	3702.74
23.76	3702.74
23.78	3829.18
23.8	3937.55
23.82	3160.88
23.84	3847.24
23.86	3738.86
23.88	3847.24
23.9	3811.11
23.92	3576.31
23.94	3973.67
23.96	4082.05
23.98	3829.18
24	4063.98
24.02	3612.43
24.04	3359.56
24.06	4172.36
24.08	3684.68
24.1	3720.8
24.12	3215.06
24.14	3829.18
24.16	3160.88
24.18	3558.24
24.2	3558.24
24.22	3431.81
24.24	3323.44
24.26	2962.19
24.28	3016.38
24.3	2998.32
24.32	2817.69
24.34	3160.88
24.36	3088.63
24.38	3142.81
24.4	3178.94
24.42	3106.69
24.44	3269.25
24.46	2727.38
24.48	3323.44
24.5	3395.68
24.52	2980.25
24.54	3160.88
24.56	3269.25
24.58	2853.82
24.6	2998.32
24.62	2980.25
24.64	3233.12
24.66	2799.63
24.68	2637.07
24.7	2655.14
24.72	3215.06
24.74	2763.51
24.76	2817.69
24.78	2691.26
24.8	2835.76
24.82	2998.32
24.84	2546.76
24.86	2853.82
24.88	2709.32
24.9	3088.63
24.92	2889.94
24.94	2600.95
24.96	2655.14
24.98	2528.7
25	2799.63
25.02	2673.2
25.04	2962.19
25.06	2564.82
25.08	2582.89
25.1	2727.38
25.12	2817.69
25.14	2564.82
25.16	2637.07
25.18	2799.63
25.2	2781.57
25.22	2492.58
25.24	2637.07
25.26	2817.69
25.28	2962.19
25.3	2781.57
25.32	2799.63
25.34	2781.57
25.36	2962.19
25.38	2474.51
25.4	3034.44
25.42	2781.57
25.44	2564.82
25.46	2095.21
25.48	2980.25
25.5	2655.14
25.52	2853.82
25.54	2402.27
25.56	2727.38
25.58	2835.76
25.6	2528.7
25.62	3287.31
25.64	2817.69
25.66	3504.06
25.68	3052.5
25.7	3341.5
25.72	2926.07
25.74	2853.82
25.76	3269.25
25.78	3467.93
25.8	3522.12
25.82	3449.87
25.84	3197
25.86	3124.75
25.88	3811.11
25.9	4118.17
25.92	4443.29
25.94	3901.42
25.96	4208.48
25.98	4605.85
26	4623.91
26.02	4244.6
26.04	4949.03
26.06	4678.1
26.08	4425.23
26.1	4822.59
26.12	4461.35
26.14	4389.1
26.16	4298.79
26.18	4082.05
26.2	3413.75
26.22	3413.75
26.24	2889.94
26.26	3106.69
26.28	3052.5
26.3	2944.13
26.32	2889.94
26.34	2600.95
26.36	2871.88
26.38	2817.69
26.4	2474.51
26.42	2420.33
26.44	2420.33
26.46	2510.64
26.48	2420.33
26.5	2510.64
26.52	2275.83
26.54	2095.21
26.56	2835.76
26.58	2655.14
26.6	1986.84
26.62	2059.08
26.64	2384.2
26.66	2330.02
26.68	2239.71
26.7	2492.58
26.72	2167.46
26.74	2474.51
26.76	2275.83
26.78	2438.39
26.8	2402.27
26.82	2600.95
26.84	2059.08
26.86	1715.9
26.88	2546.76
26.9	2239.71
26.92	2492.58
26.94	2059.08
26.96	1878.46
26.98	2293.89
27	2167.46
27.02	2420.33
27.04	1986.84
27.06	2257.77
27.08	2456.45
27.1	2348.08
27.12	2239.71
27.14	2330.02
27.16	2438.39
27.18	2402.27
27.2	2257.77
27.22	2709.32
27.24	2600.95
27.26	2257.77
27.28	2149.4
27.3	1986.84
27.32	2167.46
27.34	2077.15
27.36	2149.4
27.38	2384.2
27.4	2257.77
27.42	2041.02
27.44	2203.58
27.46	2203.58
27.48	2239.71
27.5	2384.2
27.52	2293.89
27.54	2077.15
27.56	2185.52
27.58	2293.89
27.6	2004.9
27.62	2167.46
27.64	2131.33
27.66	2095.21
27.68	2239.71
27.7	2113.27
27.72	1770.09
27.74	1968.77
27.76	1625.59
27.78	1806.21
27.8	2022.96
27.82	2257.77
27.84	2059.08
27.86	2095.21
27.88	2095.21
27.9	1914.59
27.92	2221.64
27.94	2059.08
27.96	2077.15
27.98	2492.58
28	2456.45
28.02	2275.83
28.04	2366.14
28.06	2221.64
28.08	2492.58
28.1	1968.77
28.12	2221.64
28.14	1860.4
28.16	2077.15
28.18	2203.58
28.2	2239.71
28.22	2004.9
28.24	2095.21
28.26	2113.27
28.28	1770.09
28.3	2257.77
28.32	2059.08
28.34	2004.9
28.36	1842.34
28.38	1697.84
28.4	2221.64
28.42	1878.46
28.44	1968.77
28.46	1896.53
28.48	2059.08
28.5	1752.03
28.52	2004.9
28.54	2275.83
28.56	2077.15
28.58	1824.28
28.6	1752.03
28.62	1806.21
28.64	2113.27
28.66	2149.4
28.68	2600.95
28.7	2095.21
28.72	2149.4
28.74	2022.96
28.76	1896.53
28.78	2131.33
28.8	2131.33
28.82	1986.84
28.84	2113.27
28.86	2185.52
28.88	2059.08
28.9	2167.46
28.92	2311.95
28.94	2456.45
28.96	2131.33
28.98	2257.77
29	1788.15
29.02	1733.97
29.04	2131.33
29.06	2095.21
29.08	1715.9
29.1	2293.89
29.12	1878.46
29.14	1878.46
29.16	1661.72
29.18	2167.46
29.2	1679.78
29.22	2221.64
29.24	2167.46
29.26	2203.58
29.28	2564.82
29.3	2348.08
29.32	2366.14
29.34	2113.27
29.36	2763.51
29.38	2293.89
29.4	2149.4
29.42	2366.14
29.44	2221.64
29.46	2167.46
29.48	1589.47
29.5	1806.21
29.52	1986.84
29.54	1697.84
29.56	1986.84
29.58	1860.4
29.6	1914.59
29.62	1950.71
29.64	1878.46
29.66	1733.97
29.68	1715.9
29.7	1842.34
29.72	1806.21
29.74	1733.97
29.76	1842.34
29.78	1661.72
29.8	2022.96
29.82	1896.53
29.84	1752.03
29.86	1643.66
29.88	1770.09
29.9	1444.97
29.92	1661.72
29.94	1860.4
29.96	1806.21
29.98	1625.59
30	1571.41
30.02	1697.84
30.04	1463.03
30.06	1860.4
30.08	1788.15
30.1	1806.21
30.12	1625.59
30.14	1571.41
30.16	1806.21
30.18	1697.84
30.2	1481.1
30.22	1679.78
30.24	1517.22
30.26	1824.28
30.28	1679.78
30.3	1860.4
30.32	1752.03
30.34	1842.34
30.36	2095.21
30.38	2095.21
30.4	1535.28
30.42	1842.34
30.44	1950.71
30.46	1752.03
30.48	1986.84
30.5	2004.9
30.52	1968.77
30.54	2004.9
30.56	1553.34
30.58	1625.59
30.6	1553.34
30.62	2095.21
30.64	1661.72
30.66	1932.65
30.68	1968.77
30.7	1679.78
30.72	1643.66
30.74	1733.97
30.76	1824.28
30.78	1968.77
30.8	2167.46
30.82	1770.09
30.84	2022.96
30.86	1607.53
30.88	1679.78
30.9	1896.53
30.92	1860.4
30.94	2077.15
30.96	1733.97
30.98	1625.59
31	1950.71
31.02	1842.34
31.04	1968.77
31.06	1788.15
31.08	1733.97
31.1	1715.9
31.12	1860.4
31.14	2004.9
31.16	2095.21
31.18	1860.4
31.2	1625.59
31.22	1788.15
31.24	1842.34
31.26	1860.4
31.28	1661.72
31.3	1336.6
31.32	1679.78
31.34	1643.66
31.36	1788.15
31.38	1752.03
31.4	1390.79
31.42	1517.22
31.44	1697.84
31.46	1553.34
31.48	1589.47
31.5	1770.09
31.52	1679.78
31.54	1733.97
31.56	1607.53
31.58	1770.09
31.6	1643.66
31.62	1553.34
31.64	1535.28
31.66	1643.66
31.68	1607.53
31.7	1733.97
31.72	1986.84
31.74	1481.1
31.76	1571.41
31.78	1733.97
31.8	1535.28
31.82	1589.47
31.84	1625.59
31.86	1679.78
31.88	1643.66
31.9	1679.78
31.92	1697.84
31.94	1824.28
31.96	1535.28
31.98	1715.9
32	1535.28
32.02	1643.66
32.04	1463.03
32.06	1553.34
32.08	1517.22
32.1	1553.34
32.12	1715.9
32.14	1354.66
32.16	1535.28
32.18	1679.78
32.2	1679.78
32.22	1553.34
32.24	1390.79
32.26	1192.1
32.28	1571.41
32.3	1481.1
32.32	1426.91
32.34	1463.03
32.36	1517.22
32.38	1517.22
32.4	1481.1
32.42	1481.1
32.44	1788.15
32.46	1426.91
32.48	1318.54
32.5	1192.1
32.52	1589.47
32.54	1535.28
32.56	1499.16
32.58	1318.54
32.6	1535.28
32.62	1336.6
32.64	1679.78
32.66	1643.66
32.68	1336.6
32.7	1463.03
32.72	1571.41
32.74	1661.72
32.76	1408.85
32.78	1517.22
32.8	1589.47
32.82	1354.66
32.84	1625.59
32.86	1372.72
32.88	1589.47
32.9	1390.79
32.92	1282.41
32.94	1300.47
32.96	1589.47
32.98	1589.47
33	1517.22
33.02	1444.97
33.04	1517.22
33.06	1192.1
33.08	1318.54
33.1	1607.53
33.12	1354.66
33.14	1607.53
33.16	1553.34
33.18	1336.6
33.2	1246.29
33.22	1408.85
33.24	1372.72
33.26	1444.97
33.28	1481.1
33.3	1444.97
33.32	1481.1
33.34	1426.91
33.36	1643.66
33.38	1625.59
33.4	1390.79
33.42	1589.47
33.44	1463.03
33.46	1535.28
33.48	1463.03
33.5	1499.16
33.52	1517.22
33.54	1625.59
33.56	1499.16
33.58	1463.03
33.6	1372.72
33.62	1029.54
33.64	1499.16
33.66	1517.22
33.68	1354.66
33.7	1372.72
33.72	1444.97
33.74	1481.1
33.76	1246.29
33.78	1336.6
33.8	1571.41
33.82	1137.92
33.84	1300.47
33.86	957.294
33.88	1426.91
33.9	1047.6
33.92	1372.72
33.94	1119.85
33.96	1426.91
33.98	1535.28
34	1499.16
34.02	1426.91
34.04	1372.72
34.06	1246.29
34.08	1336.6
34.1	1444.97
34.12	1463.03
