Sample	 
Comments	 
Filename	C:\Data\西出研\梅木\20211102オペ\ベッセル\LiFTFSI20wt_2θ_θ.raw
Goniometer	SmartLab(In-plane)
Attachment	Zステージ単独
Monochromater	None
X	0
Y	0
Z	0.03946
ScanningMode	2Theta/Theta
ScanningType	Continuos Scanning
X-Ray	40kV/30mA
入射スリット	2/3deg
受光スリット1	20.000mm
受光スリット2	20.000mm
Cu_K-beta	
Start	5
Stop	60
Step	0.02
Speed	21.6746
Offset	0
5	52398.3
5.02	50140.5
5.04	47864.7
5.06	47611.8
5.08	45787.5
5.1	46835.1
5.12	45715.3
5.14	43674.3
5.16	43295
5.18	40368.9
5.2	40603.7
5.22	39538
5.24	39249
5.26	38634.9
5.28	37876.3
5.3	36973.2
5.32	35510.2
5.34	35257.3
5.36	33685.9
5.38	34029.1
5.4	33631.7
5.42	33270.5
5.44	31825.5
5.46	32421.6
5.48	30814
5.5	32331.2
5.52	30434.7
5.54	30850.1
5.56	30669.5
5.58	29513.5
5.6	29603.9
5.62	29712.2
5.64	29549.7
5.66	29730.3
5.68	29947
5.7	29477.4
5.72	29748.4
5.74	27960.2
5.76	28195
5.78	27924.1
5.8	28827.2
5.82	26659.7
5.84	28700.8
5.86	27617
5.88	27869.9
5.9	25901.1
5.92	28050.5
5.94	26587.5
5.96	27400.3
5.98	27418.3
6	26876.5
6.02	27743.5
6.04	28827.2
6.06	27093.2
6.08	27815.7
6.1	27779.6
6.12	27635.1
6.14	27237.7
6.16	27869.9
6.18	27725.4
6.2	27833.8
6.22	28664.6
6.24	27328
6.26	28104.7
6.28	27580.9
6.3	26695.9
6.32	26876.5
6.34	27093.2
6.36	26623.6
6.38	27671.2
6.4	27906
6.42	28086.6
6.44	27833.8
6.46	27255.8
6.48	27328
6.5	28068.6
6.52	25557.9
6.54	27761.5
6.56	26677.8
6.58	27255.8
6.6	28411.8
6.62	25431.5
6.64	28321.4
6.66	27147.4
6.68	28863.3
6.7	28249.2
6.72	27454.5
6.74	27725.4
6.76	27039
6.78	27346.1
6.8	26497.2
6.82	26948.7
6.84	27544.8
6.86	27779.6
6.88	27653.1
6.9	28700.8
6.92	27346.1
6.94	27635.1
6.96	26804.2
6.98	26641.7
7	27255.8
7.02	26479.1
7.04	26894.5
7.06	26461
7.08	27454.5
7.1	26804.2
7.12	26226.2
7.14	27129.3
7.16	27653.1
7.18	27183.5
7.2	27183.5
7.22	26045.6
7.24	25521.8
7.26	25937.2
7.28	26713.9
7.3	26966.8
7.32	25973.4
7.34	27075.2
7.36	26406.9
7.38	27021
7.4	27075.2
7.42	27526.7
7.44	27039
7.46	25268.9
7.48	25232.8
7.5	26316.5
7.52	26190.1
7.54	26497.2
7.56	26424.9
7.58	26424.9
7.6	26117.9
7.62	26045.6
7.64	26099.8
7.66	26768.1
7.68	26443
7.7	26479.1
7.72	27382.2
7.74	26623.6
7.76	26370.7
7.78	27111.3
7.8	26045.6
7.82	26226.2
7.84	25973.4
7.86	27418.3
7.88	26298.5
7.9	25341.2
7.92	26370.7
7.94	26804.2
7.96	25395.4
7.98	27129.3
8	26479.1
8.02	26876.5
8.04	26172.1
8.06	25865
8.08	26081.7
8.1	26659.7
8.12	25684.4
8.14	25467.6
8.16	24636.8
8.18	25305.1
8.2	25865
8.22	26551.4
8.24	25955.3
8.26	25684.4
8.28	27472.5
8.3	27147.4
8.32	27364.2
8.34	26081.7
8.36	25323.1
8.38	25702.4
8.4	25449.6
8.42	26515.2
8.44	25828.9
8.46	27508.7
8.48	27002.9
8.5	26623.6
8.52	27490.6
8.54	27400.3
8.56	26713.9
8.58	27111.3
8.6	27111.3
8.62	27761.5
8.64	26154
8.66	26424.9
8.68	27562.8
8.7	27526.7
8.72	26695.9
8.74	27653.1
8.76	27111.3
8.78	26027.6
8.8	27978.3
8.82	26984.8
8.84	27002.9
8.86	26677.8
8.88	26370.7
8.9	27057.1
8.92	25268.9
8.94	26750
8.96	25016.1
8.98	26533.3
9	24691
9.02	27418.3
9.04	26587.5
9.06	26334.6
9.08	26822.3
9.1	26099.8
9.12	24943.8
9.14	24943.8
9.16	25702.4
9.18	25792.7
9.2	26515.2
9.22	26858.4
9.24	25612.1
9.26	25594.1
9.28	25341.2
9.3	26786.2
9.32	25539.9
9.34	26786.2
9.36	25738.6
9.38	26424.9
9.4	26551.4
9.42	24781.3
9.44	26172.1
9.46	24745.1
9.48	24438.1
9.5	24654.8
9.52	26009.5
9.54	25070.3
9.56	25305.1
9.58	25341.2
9.6	24763.2
9.62	26045.6
9.64	25539.9
9.66	25846.9
9.68	25774.7
9.7	25431.5
9.72	25557.9
9.74	25792.7
9.76	25901.1
9.78	23968.5
9.8	25792.7
9.82	25160.6
9.84	25214.8
9.86	26135.9
9.88	26154
9.9	25955.3
9.92	24943.8
9.94	24925.8
9.96	24853.5
9.98	25503.8
10	26226.2
10.02	25395.4
10.04	24221.3
10.06	25359.3
10.08	25684.4
10.1	25810.8
10.12	25268.9
10.14	25792.7
10.16	25684.4
10.18	25702.4
10.2	25196.7
10.22	25521.8
10.24	24329.7
10.26	25485.7
10.28	26226.2
10.3	24799.3
10.32	24239.4
10.34	24365.8
10.36	26298.5
10.38	24636.8
10.4	25106.4
10.42	25088.3
10.44	25648.2
10.46	24763.2
10.48	25865
10.5	25521.8
10.52	25305.1
10.54	26154
10.56	25088.3
10.58	26045.6
10.6	24329.7
10.62	25684.4
10.64	25955.3
10.66	25756.6
10.68	23444.7
10.7	25214.8
10.72	25846.9
10.74	24600.6
10.76	26063.7
10.78	26063.7
10.8	25323.1
10.82	25431.5
10.84	25883.1
10.86	25503.8
10.88	25214.8
10.9	24347.8
10.92	25413.4
10.94	24654.8
10.96	25865
10.98	26154
11	25594.1
11.02	24979.9
11.04	24347.8
11.06	24709
11.08	25684.4
11.1	25720.5
11.12	24383.9
11.14	25684.4
11.16	25720.5
11.18	26099.8
11.2	25828.9
11.22	25503.8
11.24	25630.2
11.26	25720.5
11.28	23878.2
11.3	25612.1
11.32	26894.5
11.34	25955.3
11.36	25720.5
11.38	24293.6
11.4	24943.8
11.42	25883.1
11.44	26226.2
11.46	24275.5
11.48	25594.1
11.5	25720.5
11.52	25666.3
11.54	27002.9
11.56	25359.3
11.58	25341.2
11.6	25991.4
11.62	26063.7
11.64	26009.5
11.66	25648.2
11.68	25449.6
11.7	25901.1
11.72	27237.7
11.74	24853.5
11.76	26154
11.78	24925.8
11.8	26208.2
11.82	25323.1
11.84	25883.1
11.86	25756.6
11.88	26605.5
11.9	25377.3
11.92	26262.4
11.94	24727.1
11.96	24998
11.98	26316.5
12	25377.3
12.02	27635.1
12.04	25503.8
12.06	24654.8
12.08	24998
12.1	25124.4
12.12	25377.3
12.14	26154
12.16	25485.7
12.18	25756.6
12.2	25250.9
12.22	25395.4
12.24	25937.2
12.26	24799.3
12.28	25268.9
12.3	25648.2
12.32	25955.3
12.34	25268.9
12.36	25196.7
12.38	25413.4
12.4	25901.1
12.42	26081.7
12.44	25539.9
12.46	24618.7
12.48	25503.8
12.5	25991.4
12.52	26081.7
12.54	25106.4
12.56	25268.9
12.58	25828.9
12.6	24691
12.62	25901.1
12.64	25666.3
12.66	26695.9
12.68	27382.2
12.7	25955.3
12.72	25449.6
12.74	26695.9
12.76	25287
12.78	24979.9
12.8	25648.2
12.82	26876.5
12.84	26370.7
12.86	25720.5
12.88	26641.7
12.9	26515.2
12.92	26135.9
12.94	25846.9
12.96	27093.2
12.98	26298.5
13	25846.9
13.02	25865
13.04	26226.2
13.06	25937.2
13.08	25702.4
13.1	25684.4
13.12	25810.8
13.14	24654.8
13.16	25232.8
13.18	27201.6
13.2	23986.5
13.22	26117.9
13.24	26515.2
13.26	25883.1
13.28	25846.9
13.3	26677.8
13.32	25991.4
13.34	25937.2
13.36	24835.5
13.38	26406.9
13.4	25865
13.42	25756.6
13.44	27472.5
13.46	26244.3
13.48	25196.7
13.5	26154
13.52	27093.2
13.54	25756.6
13.56	25557.9
13.58	25323.1
13.6	26244.3
13.62	25395.4
13.64	26370.7
13.66	25196.7
13.68	26027.6
13.7	25612.1
13.72	26117.9
13.74	26461
13.76	25810.8
13.78	26154
13.8	26244.3
13.82	26208.2
13.84	25287
13.86	24907.7
13.88	26424.9
13.9	25539.9
13.92	25666.3
13.94	24835.5
13.96	26135.9
13.98	26840.3
14	25937.2
14.02	25865
14.04	25846.9
14.06	26515.2
14.08	25919.2
14.1	25521.8
14.12	25883.1
14.14	25937.2
14.16	25323.1
14.18	25901.1
14.2	25630.2
14.22	25991.4
14.24	25901.1
14.26	25594.1
14.28	25016.1
14.3	26045.6
14.32	26262.4
14.34	25937.2
14.36	26244.3
14.38	25666.3
14.4	26370.7
14.42	25774.7
14.44	24221.3
14.46	24691
14.48	24925.8
14.5	27526.7
14.52	26262.4
14.54	24456.1
14.56	26154
14.58	25774.7
14.6	25341.2
14.62	25738.6
14.64	25485.7
14.66	24564.5
14.68	25232.8
14.7	25449.6
14.72	25630.2
14.74	24564.5
14.76	24979.9
14.78	25937.2
14.8	25160.6
14.82	24817.4
14.84	25305.1
14.86	24943.8
14.88	25521.8
14.9	25557.9
14.92	25287
14.94	25630.2
14.96	24781.3
14.98	25016.1
15	26063.7
15.02	24871.6
15.04	25467.6
15.06	25720.5
15.08	24672.9
15.1	26479.1
15.12	25774.7
15.14	24492.3
15.16	24817.4
15.18	24745.1
15.2	25395.4
15.22	25106.4
15.24	26406.9
15.26	24239.4
15.28	24275.5
15.3	25268.9
15.32	26244.3
15.34	25268.9
15.36	25720.5
15.38	25702.4
15.4	24998
15.42	25106.4
15.44	23444.7
15.46	26172.1
15.48	24257.5
15.5	25124.4
15.52	26641.7
15.54	24275.5
15.56	25377.3
15.58	25467.6
15.6	25323.1
15.62	24709
15.64	25756.6
15.66	25648.2
15.68	25846.9
15.7	25792.7
15.72	25377.3
15.74	24564.5
15.76	24961.9
15.78	25431.5
15.8	24311.7
15.82	25449.6
15.84	25214.8
15.86	25431.5
15.88	24058.8
15.9	24329.7
15.92	25467.6
15.94	25232.8
15.96	25576
15.98	24727.1
16	25449.6
16.02	24149.1
16.04	25160.6
16.06	24492.3
16.08	25431.5
16.1	24600.6
16.12	25016.1
16.14	25268.9
16.16	25630.2
16.18	26677.8
16.2	24094.9
16.22	24564.5
16.24	25684.4
16.26	25142.5
16.28	25124.4
16.3	25124.4
16.32	23535
16.34	24889.6
16.36	24745.1
16.38	24510.3
16.4	24058.8
16.42	24149.1
16.44	25016.1
16.46	24528.4
16.48	25088.3
16.5	24727.1
16.52	25648.2
16.54	24727.1
16.56	23733.7
16.58	24076.8
16.6	24058.8
16.62	24365.8
16.64	24492.3
16.66	23914.3
16.68	24257.5
16.7	24654.8
16.72	24600.6
16.74	23209.9
16.76	24347.8
16.78	23589.2
16.8	25196.7
16.82	23300.2
16.84	24402
16.86	23679.5
16.88	24167.2
16.9	24799.3
16.92	25160.6
16.94	24709
16.96	24131
16.98	24799.3
17	24672.9
17.02	25557.9
17.04	25576
17.06	25792.7
17.08	25684.4
17.1	24347.8
17.12	24691
17.14	25034.1
17.16	26154
17.18	25323.1
17.2	25431.5
17.22	24456.1
17.24	25937.2
17.26	24853.5
17.28	25810.8
17.3	25052.2
17.32	25485.7
17.34	26045.6
17.36	25377.3
17.38	24889.6
17.4	24961.9
17.42	25612.1
17.44	25774.7
17.46	25774.7
17.48	25268.9
17.5	24817.4
17.52	24654.8
17.54	25467.6
17.56	26858.4
17.58	25774.7
17.6	25810.8
17.62	26713.9
17.64	24239.4
17.66	24510.3
17.68	24510.3
17.7	26334.6
17.72	24709
17.74	24745.1
17.76	24167.2
17.78	24727.1
17.8	23896.2
17.82	23842
17.84	25034.1
17.86	23462.7
17.88	24221.3
17.9	24618.7
17.92	23535
17.94	23535
17.96	23372.4
17.98	24113
18	24040.7
18.02	24853.5
18.04	24131
18.06	23426.6
18.08	24275.5
18.1	24492.3
18.12	24907.7
18.14	25485.7
18.16	24672.9
18.18	25142.5
18.2	26280.4
18.22	26551.4
18.24	25648.2
18.26	26045.6
18.28	25431.5
18.3	25142.5
18.32	23950.4
18.34	24998
18.36	24745.1
18.38	24889.6
18.4	25883.1
18.42	24221.3
18.44	25305.1
18.46	25124.4
18.48	24636.8
18.5	25503.8
18.52	26262.4
18.54	25883.1
18.56	25666.3
18.58	26009.5
18.6	26822.3
18.62	26370.7
18.64	26262.4
18.66	27761.5
18.68	28574.3
18.7	28628.5
18.72	28520.1
18.74	29549.7
18.76	30886.3
18.78	31066.9
18.8	28086.6
18.82	29802.5
18.84	28502.1
18.86	28989.7
18.88	27978.3
18.9	27725.4
18.92	27075.2
18.94	26406.9
18.96	25973.4
18.98	25395.4
19	24076.8
19.02	26298.5
19.04	25431.5
19.06	23824
19.08	24022.7
19.1	24727.1
19.12	25160.6
19.14	25142.5
19.16	24979.9
19.18	23643.3
19.2	25467.6
19.22	25702.4
19.24	26948.7
19.26	25774.7
19.28	26840.3
19.3	28032.5
19.32	27057.1
19.34	26732
19.36	26190.1
19.38	26786.2
19.4	26786.2
19.42	26966.8
19.44	26027.6
19.46	25792.7
19.48	24492.3
19.5	24239.4
19.52	24763.2
19.54	24672.9
19.56	24022.7
19.58	23462.7
19.6	23787.8
19.62	23246
19.64	22631.9
19.66	24076.8
19.68	23246
19.7	22433.2
19.72	21999.7
19.74	23372.4
19.76	23824
19.78	22794.4
19.8	23083.4
19.82	22938.9
19.84	22487.4
19.86	22071.9
19.88	22920.9
19.9	22397.1
19.92	21728.8
19.94	21837.1
19.96	21674.6
19.98	23155.7
20	22649.9
20.02	22649.9
20.04	22884.7
20.06	22017.8
20.08	21981.6
20.1	22379
20.12	21475.9
20.14	22433.2
20.16	22397.1
20.18	21331.4
20.2	21945.5
20.22	21150.8
20.24	22108.1
20.26	22686.1
20.28	21114.7
20.3	21421.7
20.32	21439.8
20.34	20970.2
20.36	21873.3
20.38	20753.4
20.4	21999.7
20.42	20952.1
20.44	21566.2
20.46	21421.7
20.48	21566.2
20.5	21403.6
20.52	21855.2
20.54	21638.5
20.56	20988.2
20.58	20319.9
20.6	21530.1
20.62	21042.4
20.64	21819.1
20.66	21205
20.68	19633.6
20.7	19904.5
20.72	21259.1
20.74	21403.6
20.76	21710.7
20.78	20879.8
20.8	20681.2
20.82	20500.5
20.84	20410.2
20.86	20970.2
20.88	20825.7
20.9	20012.9
20.92	21132.7
20.94	21331.4
20.96	20717.3
20.98	20608.9
21	20897.9
21.02	20934
21.04	19778.1
21.06	20464.4
21.08	20374.1
21.1	20536.7
21.12	19832.2
21.14	20861.8
21.16	21457.8
21.18	20645
21.2	20067
21.22	20789.5
21.24	20410.2
21.26	19633.6
21.28	20067
21.3	21385.6
21.32	19814.2
21.34	19561.3
21.36	20843.7
21.38	21638.5
21.4	20843.7
21.42	20681.2
21.44	21981.6
21.46	20374.1
21.48	19705.8
21.5	19814.2
21.52	21241.1
21.54	21060.5
21.56	21801
21.58	21494
21.6	21620.4
21.62	20681.2
21.64	21638.5
21.66	20843.7
21.68	21566.2
21.7	21042.4
21.72	20699.2
21.74	20572.8
21.76	21186.9
21.78	20825.7
21.8	19958.7
21.82	21223
21.84	19705.8
21.86	20717.3
21.88	20825.7
21.9	21313.3
21.92	20012.9
21.94	20356
21.96	20934
21.98	20789.5
22	21114.7
22.02	19398.7
22.04	20211.5
22.06	20428.3
22.08	19471
22.1	20627
22.12	19850.3
22.14	20789.5
22.16	20608.9
22.18	20103.2
22.2	20663.1
22.22	18856.9
22.24	20193.5
22.26	19778.1
22.28	20554.7
22.3	19597.4
22.32	20500.5
22.34	19633.6
22.36	20374.1
22.38	20193.5
22.4	20825.7
22.42	20283.8
22.44	20843.7
22.46	20627
22.48	20861.8
22.5	21638.5
22.52	21223
22.54	21855.2
22.56	21295.3
22.58	21421.7
22.6	20482.5
22.62	21692.6
22.64	22324.8
22.66	20446.3
22.68	20500.5
22.7	21349.5
22.72	20012.9
22.74	19940.6
22.76	20789.5
22.78	20265.7
22.8	21530.1
22.82	20067
22.84	19922.5
22.86	20193.5
22.88	19687.7
22.9	19760
22.92	19579.4
22.94	18622.1
22.96	19236.2
22.98	19452.9
23	19561.3
23.02	19922.5
23.04	20916
23.06	19163.9
23.08	19760
23.1	20067
23.12	20247.7
23.14	19471
23.16	19543.2
23.18	19127.8
23.2	19904.5
23.22	20283.8
23.24	20175.4
23.26	20012.9
23.28	19127.8
23.3	19163.9
23.32	19669.7
23.34	20410.2
23.36	20464.4
23.38	20753.4
23.4	19958.7
23.42	19308.4
23.44	20103.2
23.46	19723.9
23.48	19272.3
23.5	19633.6
23.52	19850.3
23.54	19200.1
23.56	19832.2
23.58	18333.1
23.6	19380.7
23.62	18730.4
23.64	19398.7
23.66	19904.5
23.68	19525.2
23.7	18838.8
23.72	19037.5
23.74	19163.9
23.76	20265.7
23.78	19796.1
23.8	19037.5
23.82	19163.9
23.84	19398.7
23.86	19398.7
23.88	18911.1
23.9	18585.9
23.92	18513.7
23.94	18351.1
23.96	19055.6
23.98	18477.6
24	19651.6
24.02	20193.5
24.04	20518.6
24.06	19543.2
24.08	20681.2
24.1	18297
24.12	19109.8
24.14	18604
24.16	18983.3
24.18	18694.3
24.2	18730.4
24.22	19579.4
24.24	18640.1
24.26	19507.1
24.28	18838.8
24.3	18026
24.32	19669.7
24.34	17863.5
24.36	18838.8
24.38	17917.7
24.4	19326.5
24.42	18405.3
24.44	18315
24.46	18152.5
24.48	18820.8
24.5	18387.3
24.52	18080.2
24.54	18712.4
24.56	17719
24.58	17845.4
24.6	17953.8
24.62	17773.2
24.64	18513.7
24.66	17430
24.68	17989.9
24.7	18387.3
24.72	18152.5
24.74	18242.8
24.76	17899.6
24.78	18802.7
24.8	17321.6
24.82	18152.5
24.84	17610.6
24.86	17845.4
24.88	17773.2
24.9	19019.4
24.92	18260.8
24.94	18640.1
24.96	17737
24.98	18098.3
25	17646.7
25.02	18116.3
25.04	18567.9
25.06	18080.2
25.08	18477.6
25.1	18242.8
25.12	18351.1
25.14	18513.7
25.16	18477.6
25.18	18387.3
25.2	17285.5
25.22	18459.5
25.24	18062.1
25.26	19055.6
25.28	19290.4
25.3	18730.4
25.32	18874.9
25.34	19326.5
25.36	17466.1
25.38	17592.5
25.4	18766.6
25.42	18333.1
25.44	18622.1
25.46	17664.8
25.48	18567.9
25.5	18622.1
25.52	19489.1
25.54	18965.3
25.56	18477.6
25.58	18640.1
25.6	18459.5
25.62	18405.3
25.64	19651.6
25.66	19236.2
25.68	18423.4
25.7	18297
25.72	18874.9
25.74	19507.1
25.76	18856.9
25.78	19633.6
25.8	19308.4
25.82	19705.8
25.84	20283.8
25.86	20338
25.88	19651.6
25.9	20103.2
25.92	20067
25.94	20428.3
25.96	20518.6
25.98	19994.8
26	20247.7
26.02	19507.1
26.04	20229.6
26.06	20193.5
26.08	20356
26.1	19073.6
26.12	20247.7
26.14	19705.8
26.16	18676.3
26.18	19362.6
26.2	19416.8
26.22	19200.1
26.24	19182
26.26	18405.3
26.28	18893
26.3	18062.1
26.32	17231.3
26.34	18098.3
26.36	17863.5
26.38	18188.6
26.4	16544.9
26.42	17484.2
26.44	18585.9
26.46	17520.3
26.48	17141
26.5	17809.3
26.52	17122.9
26.54	18206.6
26.56	17899.6
26.58	18026
26.6	17664.8
26.62	16671.4
26.64	16382.4
26.66	16454.6
26.68	16960.4
26.7	16418.5
26.72	17195.2
26.74	16599.1
26.76	15298.6
26.78	16382.4
26.8	16906.2
26.82	15497.3
26.84	16039.2
26.86	16472.7
26.88	16147.6
26.9	15786.3
26.92	15443.1
26.94	16057.2
26.96	16075.3
26.98	16255.9
27	16833.9
27.02	14413.6
27.04	15443.1
27.06	15804.4
27.08	14738.7
27.1	16111.4
27.12	15750.2
27.14	15226.4
27.16	15786.3
27.18	14919.3
27.2	16237.9
27.22	14847.1
27.24	16183.7
27.26	15425.1
27.28	15262.5
27.3	15659.9
27.32	15677.9
27.34	14774.8
27.36	15352.8
27.38	16779.7
27.4	14522
27.42	15009.6
27.44	15551.5
27.46	15714.1
27.48	14467.8
27.5	14070.4
27.52	16093.4
27.54	15388.9
27.56	15118
27.58	15696
27.6	15533.4
27.62	15479.3
27.64	15966.9
27.66	15334.8
27.68	15154.1
27.7	15334.8
27.72	14847.1
27.74	14522
27.76	15009.6
27.78	14720.6
27.8	14467.8
27.82	14287.2
27.84	14648.4
27.86	14540
27.88	14612.3
27.9	14305.2
27.92	14485.8
27.94	13980.1
27.96	14251
27.98	15063.8
28	14287.2
28.02	14106.5
28.04	15334.8
28.06	15063.8
28.08	14233
28.1	15298.6
28.12	15388.9
28.14	14666.5
28.16	15100
28.18	15497.3
28.2	14124.6
28.22	14287.2
28.24	14774.8
28.26	15551.5
28.28	15298.6
28.3	16255.9
28.32	14955.5
28.34	14214.9
28.36	14991.6
28.38	15515.4
28.4	15515.4
28.42	15732.1
28.44	14774.8
28.46	15623.8
28.48	14865.1
28.5	15154.1
28.52	15298.6
28.54	15118
28.56	14684.5
28.58	15334.8
28.6	15768.3
28.62	16563
28.64	16183.7
28.66	17682.8
28.68	17068.7
28.7	16960.4
28.72	16382.4
28.74	17321.6
28.76	17773.2
28.78	16689.4
28.8	16942.3
28.82	17682.8
28.84	17122.9
28.86	16906.2
28.88	16418.5
28.9	17249.3
28.92	16635.2
28.94	16490.7
28.96	16563
28.98	15425.1
29	16653.3
29.02	15822.4
29.04	16508.8
29.06	15280.6
29.08	14449.7
29.1	14522
29.12	14377.5
29.14	14142.7
29.16	15100
29.18	14720.6
29.2	14540
29.22	14648.4
29.24	13763.4
29.26	14305.2
29.28	13600.8
29.3	14088.5
29.32	14034.3
29.34	14991.6
29.36	13980.1
29.38	14305.2
29.4	14413.6
29.42	14106.5
29.44	14251
29.46	14377.5
29.48	14160.7
29.5	13185.4
29.52	13564.7
29.54	13835.6
29.56	13077
29.58	13871.7
29.6	13275.7
29.62	13239.6
29.64	13239.6
29.66	13492.4
29.68	13871.7
29.7	13456.3
29.72	13474.4
29.74	12733.8
29.76	13366
29.78	13835.6
29.8	14052.4
29.82	13781.4
29.84	13528.5
29.86	14214.9
29.88	12878.3
29.9	13546.6
29.92	13185.4
29.94	13040.9
29.96	13618.9
29.98	12697.7
30	13745.3
30.02	13871.7
30.04	13149.2
30.06	13113.1
30.08	13329.9
30.1	12914.4
30.12	13077
30.14	12968.6
30.16	12372.6
30.18	13673
30.2	13835.6
30.22	12842.2
30.24	12860.2
30.26	12733.8
30.28	12444.8
30.3	12715.8
30.32	12643.5
30.34	12517.1
30.36	13022.8
30.38	12968.6
30.4	12607.4
30.42	12426.8
30.44	13817.5
30.46	12191.9
30.48	12535.1
30.5	12300.3
30.52	13853.7
30.54	13077
30.56	12932.5
30.58	12300.3
30.6	12715.8
30.62	12661.6
30.64	12643.5
30.66	12842.2
30.68	13040.9
30.7	12661.6
30.72	13275.7
30.74	12553.2
30.76	13167.3
30.78	12824.1
30.8	11921
30.82	11957.1
30.84	13095.1
30.86	12860.2
30.88	12986.7
30.9	12842.2
30.92	12228.1
30.94	11722.3
30.96	12029.4
30.98	12101.6
31	12101.6
31.02	12426.8
31.04	13149.2
31.06	11812.6
31.08	11614
31.1	12697.7
31.12	12101.6
31.14	11740.4
31.16	13040.9
31.18	12986.7
31.2	12246.1
31.22	11975.2
31.24	13275.7
31.26	12788
31.28	12607.4
31.3	13239.6
31.32	12769.9
31.34	11884.9
31.36	13058.9
31.38	12336.4
31.4	12426.8
31.42	12589.3
31.44	12968.6
31.46	12950.6
31.48	12083.6
31.5	12318.4
31.52	12137.8
31.54	11722.3
31.56	11957.1
31.58	12372.6
31.6	12210
31.62	12047.5
31.64	12282.3
31.66	12282.3
31.68	11993.3
31.7	11722.3
31.72	12769.9
31.74	12553.2
31.76	12480.9
31.78	12842.2
31.8	12011.3
31.82	12390.6
31.84	12282.3
31.86	12372.6
31.88	12065.5
31.9	12137.8
31.92	13366
31.94	12264.2
31.96	12426.8
31.98	11415.3
32	12119.7
32.02	11830.7
32.04	11993.3
32.06	12553.2
32.08	10963.7
32.1	12011.3
32.12	12047.5
32.14	11957.1
32.16	12083.6
32.18	11884.9
32.2	11144.3
32.22	12480.9
32.24	11758.5
32.26	11884.9
32.28	12173.9
32.3	12607.4
32.32	12191.9
32.34	12480.9
32.36	12065.5
32.38	12029.4
32.4	12011.3
32.42	11776.5
32.44	11668.1
32.46	12354.5
32.48	11939.1
32.5	12191.9
32.52	11144.3
32.54	11126.3
32.56	12173.9
32.58	11830.7
32.6	11632
32.62	11017.9
32.64	11595.9
32.66	10999.8
32.68	11939.1
32.7	11108.2
32.72	12065.5
32.74	11650.1
32.76	12372.6
32.78	11884.9
32.8	12210
32.82	11939.1
32.84	11939.1
32.86	11234.7
32.88	11469.5
32.9	12047.5
32.92	11668.1
32.94	12011.3
32.96	11939.1
32.98	12101.6
33	11577.8
33.02	11794.6
33.04	11704.3
33.06	11884.9
33.08	11234.7
33.1	11379.2
33.12	11379.2
33.14	11722.3
33.16	11541.7
33.18	11541.7
33.2	11054
33.22	11505.6
33.24	11577.8
33.26	11144.3
33.28	12318.4
33.3	11325
33.32	12047.5
33.34	11523.6
33.36	12011.3
33.38	11614
33.4	11957.1
33.42	11758.5
33.44	11541.7
33.46	11577.8
33.48	11541.7
33.5	11921
33.52	11559.8
33.54	11361.1
33.56	10873.4
33.58	10421.9
33.6	12065.5
33.62	11017.9
33.64	10837.3
33.66	11559.8
33.68	10963.7
33.7	11595.9
33.72	10801.2
33.74	10060.6
33.76	11650.1
33.78	10945.7
33.8	11198.5
33.82	10728.9
33.84	11126.3
33.86	11632
33.88	11017.9
33.9	11415.3
33.92	11541.7
33.94	12065.5
33.96	11722.3
33.98	10855.4
34	11776.5
34.02	11397.2
34.04	11559.8
34.06	11180.5
34.08	10855.4
34.1	11776.5
34.12	11559.8
34.14	10747
34.16	11036
34.18	10855.4
34.2	10855.4
34.22	11884.9
34.24	10403.8
34.26	11126.3
34.28	11144.3
