Sample	 
Comments	 
Filename	C:\Data\西出研\梅木\20211102オペ\LiTFSI24wt_05_0005_0119-1_C_2θ.raw
Goniometer	SmartLab(In-plane)
Attachment	標準Zステージ
Monochromater	None
X	0
Y	0
Z	0.01756
ScanningMode	2Theta
ScanningType	Continuos Scanning
X-Ray	40kV/30mA
入射スリット	0.300mm
受光スリット1	20.000mm
受光スリット2	20.000mm
None	
Start	5
Stop	60
Step	0.02
Speed	21.6746
Theta	0
5	8037.66
5.02	7008.11
5.04	6303.69
5.06	7369.36
5.08	7134.55
5.1	7568.04
5.12	7098.42
5.14	6502.37
5.16	6303.69
5.18	7170.67
5.2	6827.49
5.22	7279.05
5.24	7044.24
5.26	6953.93
5.28	6917.8
5.3	6755.24
5.32	7008.11
5.34	7044.24
5.36	6971.99
5.38	7026.18
5.4	6628.81
5.42	6845.55
5.44	6177.25
5.46	6809.43
5.48	6917.8
5.5	6827.49
5.52	7351.29
5.54	6610.75
5.56	6863.62
5.58	7080.36
5.6	5942.45
5.62	6881.68
5.64	6701.06
5.66	6321.75
5.68	5671.51
5.7	6303.69
5.72	6339.81
5.74	6484.31
5.76	7260.98
5.78	6755.24
5.8	6791.37
5.82	6014.69
5.84	6881.68
5.86	6213.38
5.88	5870.2
5.9	5852.14
5.92	6249.5
5.94	6935.86
5.96	6448.19
5.98	6664.93
6	6646.87
6.02	6682.99
6.04	6773.31
6.06	6430.12
6.08	6791.37
6.1	6213.38
6.12	6682.99
6.14	5996.63
6.16	6646.87
6.18	6394
6.2	6339.81
6.22	6303.69
6.24	6177.25
6.26	6809.43
6.28	5996.63
6.3	5797.95
6.32	6773.31
6.34	6213.38
6.36	6394
6.38	5888.26
6.4	6141.13
6.42	6195.32
6.44	6050.82
6.46	6321.75
6.48	6303.69
6.5	6628.81
6.52	5797.95
6.54	6538.5
6.56	5996.63
6.58	6394
6.6	5960.51
6.62	6267.56
6.64	5707.64
6.66	6357.88
6.68	5870.2
6.7	6032.76
6.72	6123.07
6.74	6086.94
6.76	6123.07
6.78	6213.38
6.8	6339.81
6.82	6231.44
6.84	6285.63
6.86	6701.06
6.88	6195.32
6.9	6032.76
6.92	5978.57
6.94	5996.63
6.96	6267.56
6.98	5960.51
7	6086.94
7.02	6303.69
7.04	5761.82
7.06	5816.01
7.08	5545.08
7.1	5797.95
7.12	5563.14
7.14	5761.82
7.16	5725.7
7.18	5960.51
7.2	5671.51
7.22	6430.12
7.24	5996.63
7.26	5436.71
7.28	5508.95
7.3	5779.89
7.32	6050.82
7.34	5816.01
7.36	5743.76
7.38	5310.27
7.4	6321.75
7.42	6105.01
7.44	6050.82
7.46	5761.82
7.48	5689.58
7.5	6394
7.52	6701.06
7.54	5653.45
7.56	5725.7
7.58	5310.27
7.6	5725.7
7.62	5816.01
7.64	5761.82
7.66	6123.07
7.68	5779.89
7.7	5599.27
7.72	6267.56
7.74	6141.13
7.76	6086.94
7.78	5490.89
7.8	5653.45
7.82	5743.76
7.84	5346.4
7.86	5635.39
7.88	5454.77
7.9	5472.83
7.92	5364.46
7.94	5761.82
7.96	6105.01
7.98	5906.32
8	5599.27
8.02	5707.64
8.04	5924.38
8.06	5852.14
8.08	5942.45
8.1	5942.45
8.12	5201.9
8.14	5400.58
8.16	5797.95
8.18	5545.08
8.2	5563.14
8.22	5328.33
8.24	5797.95
8.26	5382.52
8.28	6123.07
8.3	6105.01
8.32	6105.01
8.34	6177.25
8.36	5689.58
8.38	5328.33
8.4	5256.08
8.42	5093.53
8.44	5563.14
8.46	5779.89
8.48	5292.21
8.5	5816.01
8.52	5635.39
8.54	5689.58
8.56	5707.64
8.58	6159.19
8.6	5364.46
8.62	5490.89
8.64	6032.76
8.66	5906.32
8.68	5888.26
8.7	5888.26
8.72	5689.58
8.74	5400.58
8.76	5689.58
8.78	5707.64
8.8	6177.25
8.82	5870.2
8.84	6249.5
8.86	5797.95
8.88	5635.39
8.9	5418.64
8.92	5599.27
8.94	5761.82
8.96	5924.38
8.98	5490.89
9	5545.08
9.02	5942.45
9.04	5527.02
9.06	5707.64
9.08	4768.41
9.1	5382.52
9.12	5400.58
9.14	5545.08
9.16	6213.38
9.18	5219.96
9.2	5942.45
9.22	5816.01
9.24	5346.4
9.26	5779.89
9.28	5563.14
9.3	5075.46
9.32	5581.2
9.34	6086.94
9.36	5635.39
9.38	5761.82
9.4	5490.89
9.42	5508.95
9.44	5906.32
9.46	6177.25
9.48	6159.19
9.5	5219.96
9.52	5834.07
9.54	5635.39
9.56	5707.64
9.58	5816.01
9.6	5689.58
9.62	5816.01
9.64	5346.4
9.66	5653.45
9.68	5725.7
9.7	5111.59
9.72	5527.02
9.74	5563.14
9.76	5924.38
9.78	5671.51
9.8	5201.9
9.82	5797.95
9.84	5617.33
9.86	5490.89
9.88	5689.58
9.9	6123.07
9.92	5599.27
9.94	5527.02
9.96	6105.01
9.98	5238.02
10	5942.45
10.02	5436.71
10.04	5490.89
10.06	5328.33
10.08	5671.51
10.1	5743.76
10.12	6159.19
10.14	5779.89
10.16	5310.27
10.18	5436.71
10.2	5508.95
10.22	5436.71
10.24	6068.88
10.26	5599.27
10.28	5508.95
10.3	5906.32
10.32	6159.19
10.34	5671.51
10.36	5599.27
10.38	5852.14
10.4	5201.9
10.42	5111.59
10.44	5906.32
10.46	5581.2
10.48	5400.58
10.5	6285.63
10.52	5346.4
10.54	5960.51
10.56	5671.51
10.58	6195.32
10.6	5743.76
10.62	6755.24
10.64	6448.19
10.66	6646.87
10.68	7459.67
10.7	7568.04
10.72	7333.23
10.74	7658.35
10.76	7297.11
10.78	7152.61
10.8	6990.05
10.82	6592.68
10.84	6032.76
10.86	6014.69
10.88	5725.7
10.9	6123.07
10.92	5779.89
10.94	5436.71
10.96	5508.95
10.98	5725.7
11	5635.39
11.02	5816.01
11.04	5563.14
11.06	6086.94
11.08	5472.83
11.1	5906.32
11.12	5707.64
11.14	5527.02
11.16	5996.63
11.18	5635.39
11.2	6412.06
11.22	5382.52
11.24	5779.89
11.26	5292.21
11.28	5816.01
11.3	5816.01
11.32	5761.82
11.34	5743.76
11.36	5942.45
11.38	5689.58
11.4	5906.32
11.42	5545.08
11.44	5653.45
11.46	5888.26
11.48	5653.45
11.5	5761.82
11.52	5328.33
11.54	5978.57
11.56	5761.82
11.58	5635.39
11.6	5581.2
11.62	6141.13
11.64	5093.53
11.66	5364.46
11.68	5779.89
11.7	6267.56
11.72	5671.51
11.74	6123.07
11.76	6068.88
11.78	5653.45
11.8	5725.7
11.82	6050.82
11.84	5725.7
11.86	5797.95
11.88	5816.01
11.9	5888.26
11.92	6213.38
11.94	5563.14
11.96	5508.95
11.98	6249.5
12	5599.27
12.02	5689.58
12.04	5978.57
12.06	5689.58
12.08	5725.7
12.1	5599.27
12.12	5599.27
12.14	5924.38
12.16	5942.45
12.18	6195.32
12.2	6105.01
12.22	5635.39
12.24	6086.94
12.26	5400.58
12.28	5328.33
12.3	5743.76
12.32	5147.71
12.34	5508.95
12.36	6412.06
12.38	5906.32
12.4	5653.45
12.42	5942.45
12.44	4858.72
12.46	5581.2
12.48	5599.27
12.5	5599.27
12.52	6086.94
12.54	6267.56
12.56	6159.19
12.58	6086.94
12.6	5545.08
12.62	6538.5
12.64	5942.45
12.66	5870.2
12.68	5617.33
12.7	5653.45
12.72	6141.13
12.74	6466.25
12.76	5797.95
12.78	5707.64
12.8	5888.26
12.82	5436.71
12.84	6321.75
12.86	5924.38
12.88	6502.37
12.9	5761.82
12.92	5834.07
12.94	6032.76
12.96	6682.99
12.98	6159.19
13	5581.2
13.02	6375.94
13.04	6014.69
13.06	6050.82
13.08	5545.08
13.1	5834.07
13.12	6032.76
13.14	5870.2
13.16	5581.2
13.18	6195.32
13.2	5653.45
13.22	6285.63
13.24	6141.13
13.26	5960.51
13.28	5581.2
13.3	5996.63
13.32	5725.7
13.34	5996.63
13.36	5057.4
13.38	5617.33
13.4	5761.82
13.42	5960.51
13.44	5581.2
13.46	6068.88
13.48	5797.95
13.5	5978.57
13.52	5689.58
13.54	5743.76
13.56	5960.51
13.58	5635.39
13.6	6068.88
13.62	5274.15
13.64	6267.56
13.66	5906.32
13.68	6249.5
13.7	5508.95
13.72	6050.82
13.74	5779.89
13.76	5942.45
13.78	6502.37
13.8	5779.89
13.82	5436.71
13.84	6105.01
13.86	5617.33
13.88	6105.01
13.9	5852.14
13.92	5779.89
13.94	5581.2
13.96	5924.38
13.98	5852.14
14	5689.58
14.02	6195.32
14.04	5165.77
14.06	6646.87
14.08	5761.82
14.1	5490.89
14.12	5816.01
14.14	5870.2
14.16	5834.07
14.18	5545.08
14.2	5797.95
14.22	5942.45
14.24	6520.44
14.26	5508.95
14.28	5725.7
14.3	5942.45
14.32	5816.01
14.34	5725.7
14.36	5725.7
14.38	5400.58
14.4	5743.76
14.42	6141.13
14.44	5924.38
14.46	6430.12
14.48	5418.64
14.5	5563.14
14.52	5563.14
14.54	5960.51
14.56	6068.88
14.58	6086.94
14.6	5707.64
14.62	5816.01
14.64	5183.84
14.66	5978.57
14.68	5563.14
14.7	5508.95
14.72	5761.82
14.74	5960.51
14.76	5219.96
14.78	5599.27
14.8	6267.56
14.82	6213.38
14.84	6105.01
14.86	6032.76
14.88	5472.83
14.9	5707.64
14.92	5978.57
14.94	5725.7
14.96	5527.02
14.98	5888.26
15	5292.21
15.02	5472.83
15.04	6014.69
15.06	6032.76
15.08	5906.32
15.1	5328.33
15.12	6123.07
15.14	5201.9
15.16	5834.07
15.18	6159.19
15.2	6141.13
15.22	6213.38
15.24	5527.02
15.26	5490.89
15.28	5599.27
15.3	5346.4
15.32	5418.64
15.34	5111.59
15.36	5761.82
15.38	5545.08
15.4	5689.58
15.42	5238.02
15.44	6086.94
15.46	5400.58
15.48	5852.14
15.5	6105.01
15.52	6105.01
15.54	5924.38
15.56	5093.53
15.58	5942.45
15.6	5472.83
15.62	5021.28
15.64	5436.71
15.66	5400.58
15.68	5490.89
15.7	5418.64
15.72	5545.08
15.74	5418.64
15.76	5599.27
15.78	5039.34
15.8	5454.77
15.82	5635.39
15.84	6231.44
15.86	5725.7
15.88	5129.65
15.9	5725.7
15.92	5779.89
15.94	5870.2
15.96	5147.71
15.98	4967.09
16	5454.77
16.02	5563.14
16.04	5292.21
16.06	5165.77
16.08	5599.27
16.1	5310.27
16.12	5382.52
16.14	4949.03
16.16	5418.64
16.18	5238.02
16.2	5075.46
16.22	5057.4
16.24	5599.27
16.26	5527.02
16.28	5219.96
16.3	5129.65
16.32	5129.65
16.34	5256.08
16.36	5039.34
16.38	5310.27
16.4	4804.53
16.42	5183.84
16.44	4949.03
16.46	4641.97
16.48	4461.35
16.5	5165.77
16.52	4985.15
16.54	5201.9
16.56	4822.59
16.58	5075.46
16.6	4930.97
16.62	4660.03
16.64	5418.64
16.66	5436.71
16.68	5238.02
16.7	5201.9
16.72	5129.65
16.74	4840.66
16.76	5274.15
16.78	5165.77
16.8	4876.78
16.82	5111.59
16.84	5725.7
16.86	5129.65
16.88	5418.64
16.9	5183.84
16.92	5201.9
16.94	5942.45
16.96	5653.45
16.98	5671.51
17	6484.31
17.02	6682.99
17.04	7116.49
17.06	7477.73
17.08	8182.15
17.1	7929.28
17.12	8308.59
17.14	7441.6
17.16	7260.98
17.18	6574.62
17.2	6213.38
17.22	5418.64
17.24	5382.52
17.26	5725.7
17.28	5707.64
17.3	5093.53
17.32	4804.53
17.34	4822.59
17.36	5075.46
17.38	5364.46
17.4	5310.27
17.42	4497.47
17.44	5003.21
17.46	5111.59
17.48	5165.77
17.5	4804.53
17.52	4930.97
17.54	4822.59
17.56	4967.09
17.58	4461.35
17.6	5129.65
17.62	4912.9
17.64	4786.47
17.66	4840.66
17.68	4840.66
17.7	4750.34
17.72	4732.28
17.74	4750.34
17.76	4732.28
17.78	4425.23
17.8	4840.66
17.82	4768.41
17.84	5075.46
17.86	4840.66
17.88	4840.66
17.9	4678.1
17.92	4822.59
17.94	4894.84
17.96	5129.65
17.98	4949.03
18	5147.71
18.02	4660.03
18.04	5021.28
18.06	5003.21
18.08	4154.29
18.1	4696.16
18.12	4985.15
18.14	5165.77
18.16	5400.58
18.18	5129.65
18.2	5111.59
18.22	5743.76
18.24	6538.5
18.26	6086.94
18.28	5816.01
18.3	5328.33
18.32	5924.38
18.34	5870.2
18.36	5075.46
18.38	5039.34
18.4	5003.21
18.42	5165.77
18.44	4641.97
18.46	5165.77
18.48	5382.52
18.5	4912.9
18.52	4876.78
18.54	5057.4
18.56	4949.03
18.58	4930.97
18.6	4262.67
18.62	4750.34
18.64	4714.22
18.66	5599.27
18.68	5021.28
18.7	4822.59
18.72	4551.66
18.74	5183.84
18.76	4334.92
18.78	5364.46
18.8	5057.4
18.82	5581.2
18.84	5617.33
18.86	5490.89
18.88	5292.21
18.9	5617.33
18.92	6177.25
18.94	6809.43
18.96	7188.73
18.98	8182.15
19	8236.34
19.02	10241.2
19.04	10801.2
19.06	10078.7
19.08	10458
19.1	9861.93
19.12	9265.88
19.14	7549.98
19.16	7279.05
19.18	6394
19.2	6195.32
19.22	5743.76
19.24	5346.4
19.26	5382.52
19.28	4840.66
19.3	4786.47
19.32	4967.09
19.34	5310.27
19.36	5563.14
19.38	5635.39
19.4	5256.08
19.42	5725.7
19.44	5490.89
19.46	5147.71
19.48	5400.58
19.5	5707.64
19.52	5581.2
19.54	4822.59
19.56	4732.28
19.58	4750.34
19.6	5021.28
19.62	4768.41
19.64	4641.97
19.66	4660.03
19.68	4587.79
19.7	4822.59
19.72	4732.28
19.74	5201.9
19.76	4533.6
19.78	4352.98
19.8	4136.23
19.82	4100.11
19.84	4280.73
19.86	4371.04
19.88	4515.54
19.9	4497.47
19.92	4967.09
19.94	4497.47
19.96	4352.98
19.98	5274.15
20	4840.66
20.02	4840.66
20.04	4461.35
20.06	4533.6
20.08	4551.66
20.1	4750.34
20.12	5382.52
20.14	4244.6
20.16	4840.66
20.18	4479.41
20.2	5129.65
20.22	4750.34
20.24	4461.35
20.26	4262.67
20.28	4190.42
20.3	4967.09
20.32	4443.29
20.34	4371.04
20.36	5111.59
20.38	4136.23
20.4	4244.6
20.42	4461.35
20.44	4316.85
20.46	4479.41
20.48	4479.41
20.5	4244.6
20.52	4316.85
20.54	4678.1
20.56	4858.72
20.58	4479.41
20.6	4876.78
20.62	4985.15
20.64	4605.85
20.66	4082.05
20.68	4569.72
20.7	4226.54
20.72	4389.1
20.74	4063.98
20.76	4696.16
20.78	4371.04
20.8	4407.16
20.82	3919.49
20.84	4280.73
20.86	4587.79
20.88	4587.79
20.9	4822.59
20.92	4533.6
20.94	4587.79
20.96	4389.1
20.98	4352.98
21	4660.03
21.02	4569.72
21.04	4443.29
21.06	4479.41
21.08	3811.11
21.1	4515.54
21.12	3991.73
21.14	4443.29
21.16	4587.79
21.18	4461.35
21.2	4389.1
21.22	4262.67
21.24	4497.47
21.26	4533.6
21.28	4190.42
21.3	4334.92
21.32	4280.73
21.34	4334.92
21.36	4533.6
21.38	4696.16
21.4	4641.97
21.42	5057.4
21.44	4154.29
21.46	4605.85
21.48	4027.86
21.5	4515.54
21.52	4515.54
21.54	4244.6
21.56	4858.72
21.58	4696.16
21.6	4822.59
21.62	4425.23
21.64	4551.66
21.66	4443.29
21.68	4461.35
21.7	4190.42
21.72	4443.29
21.74	4045.92
21.76	4208.48
21.78	4190.42
21.8	4244.6
21.82	4136.23
21.84	4696.16
21.86	3973.67
21.88	4172.36
21.9	4262.67
21.92	4226.54
21.94	3955.61
21.96	4316.85
21.98	4551.66
22	4100.11
22.02	3919.49
22.04	3774.99
22.06	4497.47
22.08	4154.29
22.1	4027.86
22.12	4316.85
22.14	3793.05
22.16	4425.23
22.18	4352.98
22.2	3684.68
22.22	3991.73
22.24	4244.6
22.26	4371.04
22.28	4298.79
22.3	3937.55
22.32	4226.54
22.34	4515.54
22.36	4804.53
22.38	4154.29
22.4	4244.6
22.42	3883.36
22.44	4172.36
22.46	4244.6
22.48	4244.6
22.5	4280.73
22.52	3901.42
22.54	3865.3
22.56	3684.68
22.58	3576.31
22.6	3901.42
22.62	3901.42
22.64	3973.67
22.66	4154.29
22.68	3720.8
22.7	4407.16
22.72	4226.54
22.74	4045.92
22.76	4262.67
22.78	4298.79
22.8	4768.41
22.82	4190.42
22.84	4533.6
22.86	4533.6
22.88	4804.53
22.9	4208.48
22.92	4768.41
22.94	5599.27
22.96	5635.39
22.98	4985.15
23	5635.39
23.02	5075.46
23.04	5256.08
23.06	4750.34
23.08	4732.28
23.1	4587.79
23.12	4443.29
23.14	4334.92
23.16	3865.3
23.18	4334.92
23.2	4027.86
23.22	4389.1
23.24	3811.11
23.26	3630.49
23.28	4154.29
23.3	4063.98
23.32	4027.86
23.34	3702.74
23.36	4118.17
23.38	3919.49
23.4	3955.61
23.42	4027.86
23.44	3973.67
23.46	4190.42
23.48	3756.93
23.5	3793.05
23.52	3449.87
23.54	3883.36
23.56	4118.17
23.58	4027.86
23.6	3467.93
23.62	3738.86
23.64	4027.86
23.66	3973.67
23.68	3955.61
23.7	3558.24
23.72	3883.36
23.74	3847.24
23.76	3793.05
23.78	3901.42
23.8	3612.43
23.82	4045.92
23.84	3684.68
23.86	3937.55
23.88	3413.75
23.9	3684.68
23.92	3793.05
23.94	3431.81
23.96	3919.49
23.98	3522.12
24	3558.24
24.02	3738.86
24.04	3738.86
24.06	3504.06
24.08	3504.06
24.1	3504.06
24.12	4027.86
24.14	3630.49
24.16	3901.42
24.18	3106.69
24.2	3648.55
24.22	3413.75
24.24	3883.36
24.26	3558.24
24.28	3901.42
24.3	3467.93
24.32	3847.24
24.34	3774.99
24.36	3955.61
24.38	4063.98
24.4	3829.18
24.42	4190.42
24.44	4876.78
24.46	5201.9
24.48	5129.65
24.5	5274.15
24.52	5599.27
24.54	5201.9
24.56	6285.63
24.58	5707.64
24.6	6123.07
24.62	5382.52
24.64	4930.97
24.66	5400.58
24.68	6123.07
24.7	5834.07
24.72	5292.21
24.74	5256.08
24.76	5545.08
24.78	5545.08
24.8	5165.77
24.82	5599.27
24.84	4660.03
24.86	4876.78
24.88	4840.66
24.9	4443.29
24.92	4045.92
24.94	3919.49
24.96	3738.86
24.98	3811.11
25	3522.12
25.02	3756.93
25.04	3648.55
25.06	4154.29
25.08	3522.12
25.1	3684.68
25.12	3774.99
25.14	4027.86
25.16	3287.31
25.18	3215.06
25.2	3594.37
25.22	3504.06
25.24	3341.5
25.26	3377.62
25.28	3233.12
25.3	3449.87
25.32	3088.63
25.34	3215.06
25.36	3323.44
25.38	3088.63
25.4	3413.75
25.42	2727.38
25.44	3359.56
25.46	3178.94
25.48	2691.26
25.5	2926.07
25.52	3197
25.54	2871.88
25.56	3197
25.58	2926.07
25.6	2799.63
25.62	3197
25.64	2926.07
25.66	3594.37
25.68	2564.82
25.7	2817.69
25.72	2889.94
25.74	2944.13
25.76	3341.5
25.78	2944.13
25.8	3251.19
25.82	3016.38
25.84	2926.07
25.86	3034.44
25.88	3052.5
25.9	2781.57
25.92	3377.62
25.94	2944.13
25.96	2817.69
25.98	2908.01
26	2691.26
26.02	2944.13
26.04	2673.2
26.06	3197
26.08	3215.06
26.1	3034.44
26.12	3178.94
26.14	2600.95
26.16	2763.51
26.18	2619.01
26.2	3251.19
26.22	2835.76
26.24	2546.76
26.26	2727.38
26.28	2853.82
26.3	3070.56
26.32	2926.07
26.34	2745.45
26.36	2853.82
26.38	2889.94
26.4	2745.45
26.42	2691.26
26.44	2564.82
26.46	3142.81
26.48	2817.69
26.5	2980.25
26.52	2853.82
26.54	2962.19
26.56	2745.45
26.58	2600.95
26.6	2980.25
26.62	2745.45
26.64	2871.88
26.66	2546.76
26.68	2926.07
26.7	2908.01
26.72	2835.76
26.74	2691.26
26.76	2637.07
26.78	2673.2
26.8	2546.76
26.82	3305.37
26.84	2908.01
26.86	2510.64
26.88	2745.45
26.9	2420.33
26.92	2600.95
26.94	2673.2
26.96	2763.51
26.98	2438.39
27	2998.32
27.02	2745.45
27.04	2546.76
27.06	2655.14
27.08	2311.95
27.1	2456.45
27.12	2655.14
27.14	2817.69
27.16	2781.57
27.18	2546.76
27.2	2582.89
27.22	2763.51
27.24	2492.58
27.26	2600.95
27.28	2492.58
27.3	2835.76
27.32	2871.88
27.34	2510.64
27.36	2330.02
27.38	2619.01
27.4	2275.83
27.42	2402.27
27.44	2709.32
27.46	2402.27
27.48	2348.08
27.5	2853.82
27.52	2438.39
27.54	2384.2
27.56	2582.89
27.58	2293.89
27.6	2619.01
27.62	2456.45
27.64	2781.57
27.66	2275.83
27.68	2275.83
27.7	2546.76
27.72	2492.58
27.74	2582.89
27.76	2510.64
27.78	2456.45
27.8	2600.95
27.82	2655.14
27.84	2293.89
27.86	2384.2
27.88	2474.51
27.9	2366.14
27.92	2167.46
27.94	2456.45
27.96	2366.14
27.98	2926.07
28	2311.95
28.02	2564.82
28.04	2456.45
28.06	2528.7
28.08	2564.82
28.1	2167.46
28.12	2311.95
28.14	2348.08
28.16	2293.89
28.18	2384.2
28.2	2438.39
28.22	2293.89
28.24	2546.76
28.26	2402.27
28.28	2637.07
28.3	2619.01
28.32	2781.57
28.34	2239.71
28.36	2275.83
28.38	2330.02
28.4	2420.33
28.42	2366.14
28.44	2492.58
28.46	2185.52
28.48	2564.82
28.5	2871.88
28.52	2293.89
28.54	2546.76
28.56	2167.46
28.58	2962.19
28.6	2619.01
28.62	2944.13
28.64	2691.26
28.66	2691.26
28.68	3016.38
28.7	2871.88
28.72	2908.01
28.74	3142.81
28.76	2944.13
28.78	2745.45
28.8	3124.75
28.82	2889.94
28.84	2293.89
28.86	2293.89
28.88	2348.08
28.9	2167.46
28.92	2456.45
28.94	2113.27
28.96	2113.27
28.98	2402.27
29	2077.15
29.02	2203.58
29.04	2077.15
29.06	1968.77
29.08	2131.33
29.1	2330.02
29.12	2239.71
29.14	2456.45
29.16	2239.71
29.18	2131.33
29.2	2348.08
29.22	2239.71
29.24	1968.77
29.26	2185.52
29.28	1950.71
29.3	2221.64
29.32	2330.02
29.34	2492.58
29.36	1968.77
29.38	2384.2
29.4	2185.52
29.42	2203.58
29.44	2257.77
29.46	1914.59
29.48	2257.77
29.5	2366.14
29.52	1806.21
29.54	2293.89
29.56	2004.9
29.58	2185.52
29.6	2330.02
29.62	1752.03
29.64	2311.95
29.66	2041.02
29.68	2167.46
29.7	2293.89
29.72	2022.96
29.74	2022.96
29.76	2095.21
29.78	1932.65
29.8	1968.77
29.82	2131.33
29.84	2311.95
29.86	1896.53
29.88	2041.02
29.9	2420.33
29.92	2113.27
29.94	1950.71
29.96	1806.21
29.98	1860.4
30	2185.52
30.02	2095.21
30.04	1553.34
30.06	2022.96
30.08	2113.27
30.1	1986.84
30.12	2041.02
30.14	1878.46
30.16	1932.65
30.18	1932.65
30.2	2041.02
30.22	1878.46
30.24	2293.89
30.26	1914.59
30.28	1643.66
30.3	2167.46
30.32	2167.46
30.34	1932.65
30.36	1914.59
30.38	1950.71
30.4	2185.52
30.42	1860.4
30.44	1842.34
30.46	2257.77
30.48	2420.33
30.5	2203.58
30.52	1770.09
30.54	1788.15
30.56	2167.46
30.58	2384.2
30.6	2004.9
30.62	2041.02
30.64	1986.84
30.66	2041.02
30.68	2041.02
30.7	2077.15
30.72	1950.71
30.74	1788.15
30.76	1950.71
30.78	1535.28
30.8	2275.83
30.82	1824.28
30.84	1733.97
30.86	1752.03
30.88	1752.03
30.9	1733.97
30.92	2059.08
30.94	2221.64
30.96	1806.21
30.98	1950.71
31	2149.4
31.02	1986.84
31.04	1752.03
31.06	2059.08
31.08	1824.28
31.1	2059.08
31.12	1842.34
31.14	1806.21
31.16	1770.09
31.18	1860.4
31.2	1914.59
31.22	1896.53
31.24	1896.53
31.26	1986.84
31.28	2022.96
31.3	1770.09
31.32	2004.9
31.34	1806.21
31.36	1788.15
31.38	1878.46
31.4	2041.02
31.42	1968.77
31.44	2095.21
31.46	2041.02
31.48	1932.65
31.5	2203.58
31.52	1860.4
31.54	1986.84
31.56	2311.95
31.58	2077.15
31.6	1878.46
31.62	2492.58
31.64	2059.08
31.66	2330.02
31.68	2203.58
31.7	2311.95
31.72	2456.45
31.74	2384.2
31.76	2600.95
31.78	2528.7
31.8	2167.46
31.82	2095.21
31.84	1986.84
31.86	2131.33
31.88	2275.83
31.9	2293.89
31.92	1932.65
31.94	2095.21
31.96	2113.27
31.98	1770.09
32	1499.16
32.02	1661.72
32.04	1733.97
32.06	2113.27
32.08	1643.66
32.1	2059.08
32.12	1643.66
32.14	2275.83
32.16	1860.4
32.18	2185.52
32.2	1607.53
32.22	1589.47
32.24	1824.28
32.26	1806.21
32.28	1697.84
32.3	1733.97
32.32	1625.59
32.34	2004.9
32.36	1824.28
32.38	2022.96
32.4	1824.28
32.42	2004.9
32.44	1679.78
32.46	1806.21
32.48	1878.46
32.5	1806.21
32.52	1986.84
32.54	1679.78
32.56	1842.34
32.58	2131.33
32.6	1336.6
32.62	1932.65
32.64	1914.59
32.66	1950.71
32.68	2113.27
32.7	1950.71
32.72	1968.77
32.74	1878.46
32.76	2022.96
32.78	2131.33
32.8	2402.27
32.82	2077.15
32.84	2293.89
32.86	2257.77
32.88	2149.4
32.9	2402.27
32.92	2546.76
32.94	2835.76
32.96	2456.45
32.98	3034.44
33	2582.89
33.02	3269.25
33.04	3558.24
33.06	3431.81
33.08	3540.18
33.1	3485.99
33.12	3197
33.14	3034.44
33.16	3323.44
33.18	2871.88
33.2	2691.26
33.22	2926.07
33.24	2275.83
33.26	2456.45
33.28	1986.84
33.3	2221.64
33.32	1968.77
33.34	1914.59
33.36	2348.08
33.38	1932.65
33.4	2149.4
33.42	2095.21
33.44	1788.15
33.46	1679.78
33.48	2041.02
33.5	1896.53
33.52	1733.97
33.54	1986.84
33.56	1860.4
33.58	1589.47
33.6	1860.4
33.62	1752.03
33.64	1679.78
33.66	1914.59
33.68	2022.96
33.7	1824.28
33.72	1264.35
33.74	1426.91
33.76	1733.97
33.78	1661.72
33.8	1932.65
33.82	1932.65
33.84	1824.28
33.86	1752.03
33.88	1625.59
33.9	1914.59
33.92	1950.71
33.94	1914.59
33.96	1860.4
33.98	2185.52
34	1860.4
34.02	1878.46
34.04	2221.64
34.06	1806.21
34.08	1950.71
34.1	2022.96
34.12	1571.41
34.14	1679.78
