Sample	 
Comments	 
Filename	C:\Data\西出研\梅木\20211102オペ\ベッセル\LiTFSI24_2θ_θ.raw
Goniometer	SmartLab(In-plane)
Attachment	Zステージ単独
Monochromater	None
X	0
Y	0
Z	0.07744
ScanningMode	2Theta/Theta
ScanningType	Continuos Scanning
X-Ray	40kV/30mA
入射スリット	2/3deg
受光スリット1	20.000mm
受光スリット2	20.000mm
Cu_K-beta	
Start	5
Stop	60
Step	0.02
Speed	21.6746
Offset	0
5	47340.9
5.02	47828.6
5.04	45336
5.06	45661.1
5.08	44161.9
5.1	41813.9
5.12	42319.6
5.14	41687.4
5.16	39483.9
5.18	39610.3
5.2	38815.6
5.22	38219.5
5.24	37280.3
5.26	36124.3
5.28	36232.7
5.3	32277.1
5.32	32782.8
5.34	33288.5
5.36	33017.6
5.38	33396.9
5.4	30543.1
5.42	31951.9
5.44	29694.2
5.46	30741.8
5.48	30001.2
5.5	29495.5
5.52	28754.9
5.54	29116.2
5.56	28736.9
5.58	26948.7
5.6	27562.8
5.62	28050.5
5.64	28917.5
5.66	25756.6
5.68	27382.2
5.7	26406.9
5.72	25738.6
5.74	27653.1
5.76	26551.4
5.78	26424.9
5.8	25648.2
5.82	27147.4
5.84	25052.2
5.86	27237.7
5.88	26352.7
5.9	26009.5
5.92	26424.9
5.94	26099.8
5.96	26352.7
5.98	26190.1
6	25594.1
6.02	25901.1
6.04	25521.8
6.06	25070.3
6.08	26894.5
6.1	25702.4
6.12	24456.1
6.14	26768.1
6.16	26948.7
6.18	26117.9
6.2	25594.1
6.22	24781.3
6.24	26208.2
6.26	24979.9
6.28	25449.6
6.3	24907.7
6.32	26424.9
6.34	25612.1
6.36	25088.3
6.38	26172.1
6.4	24510.3
6.42	25828.9
6.44	25901.1
6.46	25323.1
6.48	25088.3
6.5	26424.9
6.52	26190.1
6.54	26099.8
6.56	25413.4
6.58	25720.5
6.6	24961.9
6.62	24004.6
6.64	24600.6
6.66	24781.3
6.68	24564.5
6.7	24889.6
6.72	25557.9
6.74	25539.9
6.76	24004.6
6.78	24925.8
6.8	24998
6.82	25901.1
6.84	25901.1
6.86	24510.3
6.88	24257.5
6.9	25846.9
6.92	24799.3
6.94	25449.6
6.96	25268.9
6.98	24564.5
7	25088.3
7.02	24456.1
7.04	24420
7.06	24763.2
7.08	24907.7
7.1	24925.8
7.12	25395.4
7.14	24239.4
7.16	25250.9
7.18	26081.7
7.2	24871.6
7.22	24456.1
7.24	24402
7.26	25268.9
7.28	25557.9
7.3	25828.9
7.32	25774.7
7.34	25648.2
7.36	25178.6
7.38	25214.8
7.4	25521.8
7.42	23950.4
7.44	24618.7
7.46	24763.2
7.48	25160.6
7.5	24420
7.52	25016.1
7.54	23462.7
7.56	23968.5
7.58	25214.8
7.6	24817.4
7.62	24022.7
7.64	24203.3
7.66	26135.9
7.68	24528.4
7.7	24691
7.72	24149.1
7.74	24221.3
7.76	24492.3
7.78	24131
7.8	24618.7
7.82	24582.6
7.84	25287
7.86	24817.4
7.88	24438.1
7.9	23589.2
7.92	24420
7.94	24293.6
7.96	23589.2
7.98	24979.9
8	25865
8.02	24456.1
8.04	23661.4
8.06	24076.8
8.08	24691
8.1	24456.1
8.12	25774.7
8.14	24889.6
8.16	24329.7
8.18	23679.5
8.2	24492.3
8.22	24365.8
8.24	24474.2
8.26	24420
8.28	24076.8
8.3	24131
8.32	24709
8.34	23968.5
8.36	24239.4
8.38	23787.8
8.4	24564.5
8.42	25576
8.44	25214.8
8.46	25016.1
8.48	23571.1
8.5	23607.2
8.52	23950.4
8.54	24492.3
8.56	24456.1
8.58	24781.3
8.6	24456.1
8.62	24654.8
8.64	24492.3
8.66	23661.4
8.68	24022.7
8.7	22866.7
8.72	23408.5
8.74	24022.7
8.76	24113
8.78	23372.4
8.8	23950.4
8.82	24907.7
8.84	24474.2
8.86	24709
8.88	24943.8
8.9	24781.3
8.92	24907.7
8.94	24311.7
8.96	25666.3
8.98	23065.4
9	22613.8
9.02	24113
9.04	23896.2
9.06	24582.6
9.08	24871.6
9.1	24528.4
9.12	24149.1
9.14	24329.7
9.16	23354.4
9.18	23372.4
9.2	23769.8
9.22	24076.8
9.24	23191.8
9.26	24727.1
9.28	23914.3
9.3	24149.1
9.32	23914.3
9.34	25088.3
9.36	24474.2
9.38	24817.4
9.4	23462.7
9.42	23372.4
9.44	24257.5
9.46	23101.5
9.48	24365.8
9.5	24167.2
9.52	23733.7
9.54	23300.2
9.56	23878.2
9.58	23336.3
9.6	24311.7
9.62	23372.4
9.64	23751.7
9.66	23733.7
9.68	24185.2
9.7	23661.4
9.72	23264
9.74	23390.5
9.76	25359.3
9.78	24185.2
9.8	23824
9.82	24203.3
9.84	24004.6
9.86	24149.1
9.88	23950.4
9.9	24022.7
9.92	25359.3
9.94	23101.5
9.96	23155.7
9.98	24727.1
10	24871.6
10.02	23733.7
10.04	23733.7
10.06	23246
10.08	23137.6
10.1	25034.1
10.12	24420
10.14	23372.4
10.16	24311.7
10.18	25196.7
10.2	23751.7
10.22	23950.4
10.24	22866.7
10.26	24022.7
10.28	23733.7
10.3	24365.8
10.32	24094.9
10.34	25268.9
10.36	24076.8
10.38	24113
10.4	25305.1
10.42	24925.8
10.44	24203.3
10.46	24383.9
10.48	24998
10.5	25702.4
10.52	24022.7
10.54	26713.9
10.56	26479.1
10.58	25287
10.6	25052.2
10.62	26226.2
10.64	25503.8
10.66	26732
10.68	26424.9
10.7	26262.4
10.72	27039
10.74	27942.1
10.76	25937.2
10.78	26605.5
10.8	26750
10.82	27924.1
10.84	27201.6
10.86	26045.6
10.88	26912.6
10.9	25377.3
10.92	25377.3
10.94	24727.1
10.96	24709
10.98	25287
11	25016.1
11.02	23896.2
11.04	24564.5
11.06	23986.5
11.08	23986.5
11.1	24943.8
11.12	24329.7
11.14	25413.4
11.16	23787.8
11.18	25792.7
11.2	25088.3
11.22	24239.4
11.24	24365.8
11.26	24131
11.28	24979.9
11.3	24709
11.32	25323.1
11.34	24907.7
11.36	23932.3
11.38	24709
11.4	25052.2
11.42	24943.8
11.44	24293.6
11.46	25377.3
11.48	23625.3
11.5	24510.3
11.52	25106.4
11.54	24456.1
11.56	24347.8
11.58	24040.7
11.6	24943.8
11.62	25124.4
11.64	24040.7
11.66	23842
11.68	24745.1
11.7	25395.4
11.72	24907.7
11.74	26226.2
11.76	24528.4
11.78	23842
11.8	23733.7
11.82	25196.7
11.84	25160.6
11.86	24618.7
11.88	24040.7
11.9	24582.6
11.92	25196.7
11.94	25973.4
11.96	24998
11.98	24510.3
12	24022.7
12.02	24961.9
12.04	25034.1
12.06	24691
12.08	24745.1
12.1	25268.9
12.12	24943.8
12.14	24383.9
12.16	24727.1
12.18	25250.9
12.2	24672.9
12.22	24709
12.24	25666.3
12.26	24889.6
12.28	25052.2
12.3	25124.4
12.32	25178.6
12.34	26244.3
12.36	24835.5
12.38	25431.5
12.4	24709
12.42	25088.3
12.44	24925.8
12.46	24492.3
12.48	25467.6
12.5	25214.8
12.52	24727.1
12.54	23625.3
12.56	24727.1
12.58	25305.1
12.6	24492.3
12.62	24799.3
12.64	23932.3
12.66	24058.8
12.68	25178.6
12.7	25359.3
12.72	25142.5
12.74	26316.5
12.76	25648.2
12.78	25034.1
12.8	25503.8
12.82	25305.1
12.84	26298.5
12.86	25846.9
12.88	25666.3
12.9	25702.4
12.92	25648.2
12.94	26334.6
12.96	26298.5
12.98	25250.9
13	25016.1
13.02	25106.4
13.04	25178.6
13.06	25666.3
13.08	24889.6
13.1	24564.5
13.12	26226.2
13.14	26334.6
13.16	25106.4
13.18	24582.6
13.2	25901.1
13.22	26280.4
13.24	26533.3
13.26	25991.4
13.28	25467.6
13.3	26750
13.32	26677.8
13.34	26081.7
13.36	25594.1
13.38	26641.7
13.4	26280.4
13.42	25395.4
13.44	24257.5
13.46	25774.7
13.48	25883.1
13.5	25702.4
13.52	24998
13.54	25070.3
13.56	26533.3
13.58	24347.8
13.6	25052.2
13.62	25341.2
13.64	25648.2
13.66	25756.6
13.68	24799.3
13.7	24239.4
13.72	25973.4
13.74	26641.7
13.76	26587.5
13.78	26135.9
13.8	26533.3
13.82	25756.6
13.84	26099.8
13.86	25088.3
13.88	25883.1
13.9	27093.2
13.92	25250.9
13.94	24799.3
13.96	26027.6
13.98	25142.5
14	25214.8
14.02	24528.4
14.04	25539.9
14.06	25576
14.08	24925.8
14.1	24691
14.12	26352.7
14.14	26045.6
14.16	26334.6
14.18	25287
14.2	26027.6
14.22	25539.9
14.24	25431.5
14.26	25557.9
14.28	25702.4
14.3	26172.1
14.32	25467.6
14.34	26840.3
14.36	25395.4
14.38	24691
14.4	25395.4
14.42	26045.6
14.44	25178.6
14.46	26172.1
14.48	27671.2
14.5	26713.9
14.52	26388.8
14.54	25323.1
14.56	25684.4
14.58	24727.1
14.6	25088.3
14.62	26461
14.64	24456.1
14.66	24961.9
14.68	27346.1
14.7	25684.4
14.72	25034.1
14.74	26135.9
14.76	24889.6
14.78	25720.5
14.8	26388.8
14.82	25594.1
14.84	25883.1
14.86	24347.8
14.88	25973.4
14.9	26569.4
14.92	27093.2
14.94	25124.4
14.96	25594.1
14.98	26768.1
15	26117.9
15.02	26587.5
15.04	24871.6
15.06	25503.8
15.08	25774.7
15.1	26786.2
15.12	26388.8
15.14	25973.4
15.16	25034.1
15.18	25052.2
15.2	24546.5
15.22	25792.7
15.24	25901.1
15.26	26551.4
15.28	25250.9
15.3	25305.1
15.32	25810.8
15.34	24420
15.36	25232.8
15.38	25594.1
15.4	24889.6
15.42	25576
15.44	24871.6
15.46	25485.7
15.48	26713.9
15.5	25973.4
15.52	26154
15.54	24347.8
15.56	25449.6
15.58	25684.4
15.6	25341.2
15.62	25648.2
15.64	25720.5
15.66	24889.6
15.68	24474.2
15.7	24871.6
15.72	25594.1
15.74	24546.5
15.76	25973.4
15.78	25016.1
15.8	25539.9
15.82	23625.3
15.84	24456.1
15.86	25738.6
15.88	26334.6
15.9	24853.5
15.92	25431.5
15.94	25756.6
15.96	25160.6
15.98	24889.6
16	24799.3
16.02	24492.3
16.04	24420
16.06	24004.6
16.08	24799.3
16.1	24618.7
16.12	23914.3
16.14	23516.9
16.16	25034.1
16.18	25214.8
16.2	25250.9
16.22	25395.4
16.24	24925.8
16.26	24293.6
16.28	24203.3
16.3	24889.6
16.32	24347.8
16.34	23661.4
16.36	25557.9
16.38	24961.9
16.4	24618.7
16.42	25016.1
16.44	24961.9
16.46	24383.9
16.48	23589.2
16.5	23625.3
16.52	24745.1
16.54	24167.2
16.56	24745.1
16.58	24889.6
16.6	25449.6
16.62	23824
16.64	24618.7
16.66	25666.3
16.68	25612.1
16.7	25341.2
16.72	25901.1
16.74	25449.6
16.76	23083.4
16.78	26262.4
16.8	25034.1
16.82	24600.6
16.84	25232.8
16.86	25160.6
16.88	24907.7
16.9	25883.1
16.92	26117.9
16.94	26840.3
16.96	26677.8
16.98	26876.5
17	26677.8
17.02	28411.8
17.04	29730.3
17.06	30958.5
17.08	31012.7
17.1	31337.8
17.12	31608.8
17.14	30344.4
17.16	32746.7
17.18	32168.7
17.2	31428.1
17.22	30543.1
17.24	28520.1
17.26	28827.2
17.28	26190.1
17.3	25684.4
17.32	26172.1
17.34	23047.3
17.36	24383.9
17.38	23661.4
17.4	23318.2
17.42	24149.1
17.44	23661.4
17.46	23408.5
17.48	23516.9
17.5	23137.6
17.52	23227.9
17.54	23372.4
17.56	24907.7
17.58	23318.2
17.6	23480.8
17.62	22722.2
17.64	23119.5
17.66	23607.2
17.68	23209.9
17.7	24239.4
17.72	24618.7
17.74	24781.3
17.76	23914.3
17.78	24329.7
17.8	23209.9
17.82	22704.1
17.84	22776.4
17.86	24293.6
17.88	23047.3
17.9	23083.4
17.92	22722.2
17.94	23787.8
17.96	22902.8
17.98	23209.9
18	23715.6
18.02	23932.3
18.04	23047.3
18.06	23607.2
18.08	23354.4
18.1	24347.8
18.12	24456.1
18.14	23480.8
18.16	23896.2
18.18	24149.1
18.2	24853.5
18.22	25901.1
18.24	25521.8
18.26	26262.4
18.28	27183.5
18.3	27454.5
18.32	26677.8
18.34	26840.3
18.36	26912.6
18.38	26443
18.4	25648.2
18.42	25088.3
18.44	25539.9
18.46	23444.7
18.48	23300.2
18.5	23715.6
18.52	22270.6
18.54	23318.2
18.56	24113
18.58	23246
18.6	22433.2
18.62	23372.4
18.64	22830.6
18.66	22541.6
18.68	23029.2
18.7	23155.7
18.72	23444.7
18.74	22866.7
18.76	24004.6
18.78	23462.7
18.8	23571.1
18.82	24961.9
18.84	25214.8
18.86	24727.1
18.88	26966.8
18.9	27346.1
18.92	28303.4
18.94	29874.8
18.96	30687.6
18.98	31879.7
19	34137.5
19.02	34787.7
19.04	36846.8
19.06	36828.7
19.08	37804.1
19.1	36593.9
19.12	36359.1
19.14	33559.5
19.16	34191.6
19.18	34245.8
19.2	32782.8
19.22	29567.7
19.24	26551.4
19.26	25666.3
19.28	24817.4
19.3	24203.3
19.32	23950.4
19.34	24185.2
19.36	24582.6
19.38	23824
19.4	24474.2
19.42	23986.5
19.44	23643.3
19.46	24961.9
19.48	24058.8
19.5	22957
19.52	24131
19.54	22866.7
19.56	23787.8
19.58	22631.9
19.6	21927.4
19.62	22577.7
19.64	22162.3
19.66	21873.3
19.68	21855.2
19.7	21403.6
19.72	21999.7
19.74	21692.6
19.76	21891.3
19.78	21367.5
19.8	21439.8
19.82	21494
19.84	21674.6
19.86	22595.7
19.88	21096.6
19.9	21349.5
19.92	21909.4
19.94	22505.4
19.96	20103.2
19.98	20897.9
20	19976.7
20.02	21331.4
20.04	21963.6
20.06	21241.1
20.08	21584.3
20.1	21349.5
20.12	21819.1
20.14	21584.3
20.16	19236.2
20.18	20897.9
20.2	21512
20.22	21241.1
20.24	21367.5
20.26	20139.3
20.28	20753.4
20.3	20645
20.32	20356
20.34	21620.4
20.36	21223
20.38	21186.9
20.4	21078.5
20.42	21494
20.44	22053.9
20.46	21566.2
20.48	21186.9
20.5	21205
20.52	21421.7
20.54	19886.4
20.56	20608.9
20.58	19651.6
20.6	19326.5
20.62	21042.4
20.64	20735.3
20.66	20030.9
20.68	21349.5
20.7	20049
20.72	20301.9
20.74	21024.3
20.76	21403.6
20.78	20663.1
20.8	20861.8
20.82	20807.6
20.84	19163.9
20.86	21891.3
20.88	20753.4
20.9	21241.1
20.92	20500.5
20.94	20879.8
20.96	19380.7
20.98	20861.8
21	21530.1
21.02	21168.8
21.04	20410.2
21.06	19452.9
21.08	20518.6
21.1	20789.5
21.12	20608.9
21.14	21259.1
21.16	21421.7
21.18	20952.1
21.2	20554.7
21.22	19976.7
21.24	20446.3
21.26	20590.8
21.28	20572.8
21.3	20301.9
21.32	20771.5
21.34	20392.2
21.36	20428.3
21.38	20897.9
21.4	20735.3
21.42	20554.7
21.44	20464.4
21.46	20572.8
21.48	20916
21.5	21078.5
21.52	21945.5
21.54	21259.1
21.56	20139.3
21.58	20934
21.6	20934
21.62	22144.2
21.64	20518.6
21.66	20229.6
21.68	21457.8
21.7	20843.7
21.72	21295.3
21.74	20265.7
21.76	20590.8
21.78	21078.5
21.8	20301.9
21.82	20012.9
21.84	20265.7
21.86	19489.1
21.88	19326.5
21.9	19434.9
21.92	19814.2
21.94	19723.9
21.96	20265.7
21.98	20717.3
22	20265.7
22.02	19127.8
22.04	19850.3
22.06	18712.4
22.08	20139.3
22.1	19760
22.12	19940.6
22.14	19091.7
22.16	19109.8
22.18	19868.4
22.2	20536.7
22.22	19543.2
22.24	19669.7
22.26	19308.4
22.28	19290.4
22.3	20663.1
22.32	19344.6
22.34	20482.5
22.36	20374.1
22.38	19471
22.4	20356
22.42	19507.1
22.44	19416.8
22.46	19471
22.48	19615.5
22.5	20012.9
22.52	20608.9
22.54	19976.7
22.56	19236.2
22.58	19687.7
22.6	19236.2
22.62	20193.5
22.64	19543.2
22.66	19651.6
22.68	19489.1
22.7	19525.2
22.72	20049
22.74	19380.7
22.76	19633.6
22.78	20012.9
22.8	20283.8
22.82	20085.1
22.84	20789.5
22.86	21602.3
22.88	22071.9
22.9	22342.9
22.92	23209.9
22.94	21873.3
22.96	23209.9
22.98	23155.7
23	23968.5
23.02	23733.7
23.04	24925.8
23.06	23625.3
23.08	24474.2
23.1	24022.7
23.12	23227.9
23.14	24203.3
23.16	22758.3
23.18	23119.5
23.2	21909.4
23.22	22487.4
23.24	21475.9
23.26	21168.8
23.28	20681.2
23.3	20897.9
23.32	19868.4
23.34	19868.4
23.36	19398.7
23.38	19452.9
23.4	19452.9
23.42	18549.8
23.44	20085.1
23.46	19507.1
23.48	18983.3
23.5	19145.9
23.52	18856.9
23.54	19796.1
23.56	20012.9
23.58	19507.1
23.6	18929.1
23.62	18549.8
23.64	19109.8
23.66	19055.6
23.68	19994.8
23.7	19200.1
23.72	19073.6
23.74	19579.4
23.76	18730.4
23.78	19398.7
23.8	18874.9
23.82	19380.7
23.84	19380.7
23.86	18929.1
23.88	19471
23.9	18784.6
23.92	18531.8
23.94	19091.7
23.96	19019.4
23.98	18026
24	18712.4
24.02	17646.7
24.04	18820.8
24.06	19254.2
24.08	18874.9
24.1	19236.2
24.12	19308.4
24.14	19796.1
24.16	18838.8
24.18	20193.5
24.2	18802.7
24.22	19218.1
24.24	19326.5
24.26	19434.9
24.28	19597.4
24.3	19037.5
24.32	20103.2
24.34	18694.3
24.36	20265.7
24.38	21078.5
24.4	20247.7
24.42	21024.3
24.44	22649.9
24.46	24528.4
24.48	23751.7
24.5	24275.5
24.52	25594.1
24.54	26154
24.56	25521.8
24.58	26406.9
24.6	27255.8
24.62	27689.3
24.64	26262.4
24.66	26587.5
24.68	25828.9
24.7	26948.7
24.72	25630.2
24.74	25521.8
24.76	26063.7
24.78	25521.8
24.8	24925.8
24.82	25160.6
24.84	24961.9
24.86	25124.4
24.88	25160.6
24.9	24781.3
24.92	24889.6
24.94	24275.5
24.96	22938.9
24.98	22848.6
25	21674.6
25.02	21873.3
25.04	21909.4
25.06	21024.3
25.08	20916
25.1	20030.9
25.12	19597.4
25.14	19561.3
25.16	18820.8
25.18	19958.7
25.2	19019.4
25.22	18405.3
25.24	18712.4
25.26	17700.9
25.28	18459.5
25.3	17863.5
25.32	17989.9
25.34	18405.3
25.36	17592.5
25.38	18206.6
25.4	18278.9
25.42	17411.9
25.44	17321.6
25.46	17881.5
25.48	16689.4
25.5	17303.5
25.52	17032.6
25.54	17448
25.56	16996.5
25.58	16292.1
25.6	17411.9
25.62	17375.8
25.64	17159
25.66	17628.7
25.68	17357.7
25.7	16544.9
25.72	15425.1
25.74	17664.8
25.76	16617.2
25.78	16111.4
25.8	16526.9
25.82	15894.7
25.84	17068.7
25.86	17303.5
25.88	16183.7
25.9	16761.7
25.92	16526.9
25.94	16508.8
25.96	17141
25.98	16725.5
26	16563
26.02	16617.2
26.04	17303.5
26.06	16147.6
26.08	16346.2
26.1	16797.8
26.12	16689.4
26.14	17122.9
26.16	16219.8
26.18	16797.8
26.2	15244.5
26.22	15750.2
26.24	15677.9
26.26	16237.9
26.28	15768.3
26.3	15858.6
26.32	14720.6
26.34	15533.4
26.36	15623.8
26.38	16057.2
26.4	16274
26.42	16183.7
26.44	16111.4
26.46	16129.5
26.48	16274
26.5	15894.7
26.52	16183.7
26.54	16960.4
26.56	15930.8
26.58	15063.8
26.6	15479.3
26.62	16833.9
26.64	16075.3
26.66	15569.6
26.68	15677.9
26.7	15461.2
26.72	16039.2
26.74	16075.3
26.76	15659.9
26.78	16436.6
26.8	15262.5
26.82	15985
26.84	14829
26.86	14847.1
26.88	15623.8
26.9	15948.9
26.92	15479.3
26.94	15696
26.96	15154.1
26.98	16039.2
27	16274
27.02	15461.2
27.04	15659.9
27.06	15208.3
27.08	14865.1
27.1	15370.9
27.12	15045.8
27.14	14576.2
27.16	14413.6
27.18	15732.1
27.2	15443.1
27.22	16093.4
27.24	14847.1
27.26	15262.5
27.28	14684.5
27.3	15587.6
27.32	15208.3
27.34	14648.4
27.36	15027.7
27.38	14612.3
27.4	14431.7
27.42	16057.2
27.44	16057.2
27.46	15009.6
27.48	14684.5
27.5	14937.4
27.52	14612.3
27.54	13636.9
27.56	13907.9
27.58	14413.6
27.6	14413.6
27.62	15118
27.64	14774.8
27.66	15045.8
27.68	14467.8
27.7	14070.4
27.72	14811
27.74	15009.6
27.76	14160.7
27.78	14196.8
27.8	15334.8
27.82	14612.3
27.84	14413.6
27.86	15352.8
27.88	13925.9
27.9	14829
27.92	14413.6
27.94	14756.8
27.96	15045.8
27.98	14467.8
28	13781.4
28.02	13853.7
28.04	13673
28.06	13510.5
28.08	14341.3
28.1	13763.4
28.12	14666.5
28.14	15461.2
28.16	13564.7
28.18	14792.9
28.2	13275.7
28.22	14594.2
28.24	15388.9
28.26	14305.2
28.28	14359.4
28.3	13293.7
28.32	15172.2
28.34	13239.6
28.36	14106.5
28.38	14973.5
28.4	14214.9
28.42	15081.9
28.44	14269.1
28.46	14594.2
28.48	14016.2
28.5	14558.1
28.52	14847.1
28.54	14576.2
28.56	15027.7
28.58	14937.4
28.6	14269.1
28.62	15027.7
28.64	14883.2
28.66	14377.5
28.68	15461.2
28.7	15804.4
28.72	16255.9
28.74	16581.1
28.76	15786.3
28.78	16274
28.8	16183.7
28.82	17068.7
28.84	16129.5
28.86	15948.9
28.88	16671.4
28.9	16237.9
28.92	15948.9
28.94	15894.7
28.96	14522
28.98	16237.9
29	15280.6
29.02	15479.3
29.04	14973.5
29.06	14630.3
29.08	13889.8
29.1	14431.7
29.12	14630.3
29.14	14648.4
29.16	13889.8
29.18	13438.2
29.2	14016.2
29.22	13149.2
29.24	13889.8
29.26	12896.4
29.28	13528.5
29.3	13528.5
29.32	13781.4
29.34	13745.3
29.36	13781.4
29.38	13907.9
29.4	13907.9
29.42	13618.9
29.44	14594.2
29.46	12878.3
29.48	13980.1
29.5	13167.3
29.52	13384.1
29.54	14341.3
29.56	13546.6
29.58	12173.9
29.6	12625.4
29.62	13095.1
29.64	13185.4
29.66	13474.4
29.68	14251
29.7	13257.6
29.72	13618.9
29.74	13239.6
29.76	13167.3
29.78	14016.2
29.8	13582.7
29.82	13113.1
29.84	13095.1
29.86	14070.4
29.88	13492.4
29.9	13402.1
29.92	13347.9
29.94	13167.3
29.96	12842.2
29.98	13763.4
30	13239.6
30.02	13203.4
30.04	13384.1
30.06	13293.7
30.08	13528.5
30.1	13293.7
30.12	13004.7
30.14	13131.2
30.16	12426.8
30.18	12715.8
30.2	13438.2
30.22	12896.4
30.24	12733.8
30.26	13257.6
30.28	12950.6
30.3	11921
30.32	13546.6
30.34	12517.1
30.36	13058.9
30.38	12896.4
30.4	13257.6
30.42	13040.9
30.44	13347.9
30.46	12968.6
30.48	13582.7
30.5	11866.8
30.52	12607.4
30.54	13040.9
30.56	11921
30.58	12715.8
30.6	12968.6
30.62	12806.1
30.64	12842.2
30.66	12264.2
30.68	12553.2
30.7	12878.3
30.72	12788
30.74	12282.3
30.76	13293.7
30.78	13113.1
30.8	12607.4
30.82	12191.9
30.84	12607.4
30.86	12300.3
30.88	12968.6
30.9	13167.3
30.92	13004.7
30.94	11487.5
30.96	13077
30.98	12426.8
31	12210
31.02	12643.5
31.04	13004.7
31.06	11993.3
31.08	12517.1
31.1	12661.6
31.12	12950.6
31.14	12733.8
31.16	12643.5
31.18	12769.9
31.2	12480.9
31.22	12517.1
31.24	12228.1
31.26	13113.1
31.28	13185.4
31.3	12282.3
31.32	12824.1
31.34	12264.2
31.36	12480.9
31.38	12806.1
31.4	12788
31.42	12318.4
31.44	12589.3
31.46	12517.1
31.48	12246.1
31.5	12968.6
31.52	12661.6
31.54	13058.9
31.56	13817.5
31.58	12499
31.6	13149.2
31.62	12300.3
31.64	12444.8
31.66	12914.4
31.68	13347.9
31.7	12462.9
31.72	13113.1
31.74	13727.2
31.76	12589.3
31.78	13871.7
31.8	13293.7
31.82	13384.1
31.84	13962
31.86	13944
31.88	14233
31.9	14359.4
31.92	14377.5
31.94	14558.1
31.96	14485.8
31.98	14323.3
32	14395.5
32.02	13582.7
32.04	13347.9
32.06	13871.7
32.08	12769.9
32.1	13167.3
32.12	13040.9
32.14	12607.4
32.16	12968.6
32.18	12426.8
32.2	12589.3
32.22	12354.5
32.24	12408.7
32.26	12426.8
32.28	12047.5
32.3	11595.9
32.32	11776.5
32.34	12480.9
32.36	12191.9
32.38	12210
32.4	11921
32.42	11722.3
32.44	12282.3
32.46	11884.9
32.48	11975.2
32.5	12535.1
32.52	12083.6
32.54	11848.8
32.56	11397.2
32.58	12029.4
32.6	12282.3
32.62	12336.4
32.64	12499
32.66	12173.9
32.68	12336.4
32.7	12607.4
32.72	12661.6
32.74	13582.7
32.76	12155.8
32.78	12408.7
32.8	12480.9
32.82	12553.2
32.84	13077
32.86	12300.3
32.88	13727.2
32.9	13781.4
32.92	13781.4
32.94	13564.7
32.96	13817.5
32.98	13889.8
33	13329.9
33.02	13311.8
33.04	13618.9
33.06	14359.4
33.08	14558.1
33.1	13962
33.12	15569.6
33.14	15298.6
33.16	16671.4
33.18	16364.3
33.2	16382.4
33.22	17375.8
33.24	18278.9
33.26	18044.1
33.28	18784.6
33.3	18513.7
33.32	17682.8
33.34	17791.2
33.36	16797.8
33.38	16039.2
33.4	16219.8
33.42	16400.4
33.44	15930.8
33.46	15190.3
33.48	13582.7
33.5	14666.5
33.52	14666.5
33.54	13384.1
33.56	12607.4
33.58	13058.9
33.6	12806.1
33.62	12137.8
33.64	12769.9
33.66	13058.9
33.68	12336.4
33.7	11957.1
33.72	11830.7
33.74	12011.3
33.76	11469.5
33.78	12426.8
33.8	11830.7
33.82	12210
33.84	12300.3
33.86	12336.4
33.88	10981.8
33.9	11794.6
33.92	11758.5
33.94	11577.8
33.96	11794.6
33.98	12029.4
34	12697.7
34.02	11704.3
34.04	12011.3
34.06	12462.9
34.08	12679.6
34.1	13004.7
34.12	12137.8
34.14	12372.6
34.16	12083.6
34.18	12842.2
34.2	12426.8
34.22	11343
